    HOUR (UT)   FLARE FACTOR    SKY TESTER    SUN TESTER
   12.05583382   -1.00000000   -1.00000000   -1.00000000
   12.14222240   74.50430298    0.63000000    0.55000001
   12.14527798   74.30879974    0.75000000    0.55000001
   12.14861107   76.01920319    0.95999998    0.52999997
   12.15194416   77.93599701    1.11000001    0.52999997
   12.15499973   78.57319641    1.26999998    0.52999997
   12.15833282   80.85089874    1.25000000    0.46000001
   12.16166592   81.27919769    1.21000004    0.50000000
   12.16472149   76.55970001    1.03999996    0.51999998
   12.17083359   76.55970001    0.81999999    0.55000001
   12.17500019   76.04730225    0.61000001    0.55000001
   12.17805576   76.25009918    0.52999997    0.55000001
   12.18138885   77.36340332    0.44000000    0.55000001
   12.18444443   76.59110260    0.36000001    0.55000001
   12.18777752   76.78279877    0.36000001    0.55000001
   12.19111156   77.04640198    0.36000001    0.52999997
   12.19222260   73.47149658    0.44000000    2.67000008
   12.19444466   74.94139862    4.90999985    2.61999989
   12.19777775   74.64399719    4.90999985    2.59999990
   12.20111084   76.97000122    4.90999985    2.59999990
   12.20416641   76.75060272    4.90999985    2.61999989
   12.20749950   73.24520111    4.90999985    2.59999990
   12.21055508   72.64949799    4.90999985    2.59999990
   12.21388912   74.26000214    4.90999985    2.59999990
   12.21722221   76.46730042    4.90999985    2.59999990
   12.22194386   76.46730042    4.90999985    2.61999989
   12.22611046   76.59760284    4.90999985    2.61999989
   12.22916603   74.86779785    4.90999985    2.61999989
   12.23249912   76.56580353    4.90999985    2.61999989
   12.23583317   76.99929810    4.90999985    2.61999989
   12.23888874   80.17130280    4.90999985    2.61999989
   12.24222279   76.30789948    4.90999985    2.61999989
   12.24250031   76.88300323    4.90999985    2.61999989
   12.24583340   76.41439819    4.90999985    2.61999989
   12.24888897   79.88919830    4.90999985    2.59999990
   12.25222206   76.96279907    4.90999985    2.61999989
   12.25555515   75.52519989    4.90999985    2.59999990
   12.25861073   76.72029877    4.90999985    2.61999989
   12.26194477   78.07089996    4.90999985    2.61999989
   12.26527786   76.22139740    4.90999985    2.59999990
   12.26833344   76.74970245    4.90999985    2.61999989
   12.27305508   76.74970245    4.90999985    2.61999989
   12.27722168   75.13439941    4.90999985    2.61999989
   12.28055573   78.43499756    4.90999985    2.59999990
   12.28361130   73.70050049    4.90999985    2.59999990
   12.28694534   76.31520081    4.90999985    2.59999990
   12.29000092   78.72380066    4.90999985    2.59999990
   12.29222298   81.24729919    4.90999985    2.59999990
   12.29361153   75.04930115    4.90999985    2.59999990
   12.29694462   83.72699738    4.90999985    2.61999989
   12.30027771   81.74559784    4.90999985    2.59999990
   12.30333328   86.38790131    4.90999985    2.59999990
   12.30666733   75.20089722    4.90999985    2.55999994
   12.30972195   78.58609772    4.90999985    2.57999992
   12.31305599   82.90869904    4.90999985    2.53999996
   12.31638908   73.90630341    4.90999985    2.48000002
   12.31944466   77.30860138    4.90999985    2.57999992
   12.32416630   77.30860138    4.90999985    2.59999990
   12.32833290   77.72190094    4.90999985    2.59999990
   12.33166695   74.56250000    4.90999985    2.59999990
   12.33472157   78.31109619    4.90999985    2.59999990
   12.33805561   79.46800232    4.90999985    2.59999990
   12.34138870   77.30989838    4.90999985    2.59999990
   12.34222221   75.01490021    4.90999985    2.59999990
   12.34499931   76.80909729    4.90999985    2.59999990
   12.34805489   76.17040253    4.90999985    2.59999990
   12.35138893   78.57839966    4.90999985    2.59999990
   12.35444450   81.67539978    4.90999985    2.59999990
   12.35777855   74.37100220    4.90999985    2.59999990
   12.36111164   78.89459991    4.90999985    2.59999990
   12.36416721   78.92259979    4.90999985    2.59999990
   12.36750031   74.88300323    4.90999985    2.59999990
   12.37083340   73.52719879    4.90999985    2.61999989
   12.37555599   73.52719879    4.90999985    2.61999989
   12.37972260   75.34790039    4.90999985    2.61999989
   12.38277817   73.43630219    4.90999985    2.64000010
   12.38611126   73.06479645    4.90999985    2.61999989
   12.38916683   74.72979736    4.90999985    2.61999989
   12.39222240   74.61219788    4.90999985    2.61999989
   12.39277744   72.49960327    4.90999985    2.61999989
   12.39611053   74.27780151    4.90999985    2.64000010
   12.39944458   79.91280365    4.90999985    2.61999989
   12.40249920   73.36569977    4.90999985    2.61999989
   12.40583324   74.77980042    4.90999985    2.64000010
   12.40916634   75.78040314    4.90999985    2.61999989
   12.41222191   74.91300201    4.90999985    2.64000010
   12.41555500   75.47740173    4.90999985    2.61999989
   12.41861153   75.72540283    4.90999985    2.61999989
   12.42194462   76.06510162    4.90999985    2.59999990
   12.42666721   76.06510162    4.90999985    2.61999989
   12.43083382   77.36589813    4.90999985    2.61999989
   12.43388939   75.20619965    4.90999985    2.59999990
   12.43722248   73.64189911    4.90999985    2.61999989
   12.44055557   73.58480072    4.90999985    2.61999989
   12.44222260   73.42819977    4.90999985    2.64000010
   12.44388866   74.26249695    4.90999985    2.64000010
   12.44722271   73.07520294    4.90999985    2.61999989
   12.45055580   73.14479828    4.90999985    2.64000010
   12.45361137   76.23280334    4.90999985    2.61999989
   12.45694447   74.06130219    4.90999985    2.61999989
   12.46027756   74.62439728    4.90999985    2.61999989
   12.46333313   74.51799774    4.90999985    2.59999990
   12.46666622   76.04779816    4.90999985    2.59999990
   12.46972179   76.79820251    4.90999985    2.59999990
   12.47305489   73.33789825    4.90999985    2.59999990
   12.47777748   73.33789825    4.90999985    2.59999990
   12.48194408   74.84349823    4.90999985    2.59999990
   12.48527813   73.68070221    4.90999985    2.59999990
   12.48833370   75.90029907    4.90999985    2.59999990
   12.49166679   76.08489990    4.90999985    2.59999990
   12.49222279   75.96640015    4.90999985    2.57999992
   12.49527836   76.75399780    4.90999985    2.59999990
   12.49833393   75.64179993    4.90999985    2.57999992
   12.50166702   76.35500336    4.90999985    2.57999992
   12.50472260   74.26049805    4.90999985    2.57999992
   12.50805569   74.42680359    4.90999985    2.59999990
   12.51138878   76.68119812    4.90999985    2.59999990
   12.51444435   76.18000031    4.90999985    2.59999990
   12.51777744   76.16880035    4.90999985    2.59999990
   12.52111053   75.28549957    4.90999985    2.61999989
   12.52416611   76.47899628    4.90999985    2.61999989
   12.52888870   76.47899628    4.90999985    2.64000010
   12.53305531   74.53849792    4.90999985    2.64000010
   12.53638935   74.61029816    4.90999985    2.64000010
   12.53944492   75.87370300    4.90999985    2.64000010
   12.54222298   75.31459808    4.90999985    2.64000010
   12.54333401   75.61820221    4.90999985    2.64000010
   12.54638958   78.58239746    4.90999985    2.64000010
   12.54972267   73.59649658    4.90999985    2.64000010
   12.55305576   74.85320282    4.90999985    2.64000010
   12.55611134   76.16059875    4.90999985    2.64000010
   12.55944443   73.63680267    4.90999985    2.64000010
   12.56250000   73.69599915    4.90999985    2.64000010
   12.56583309   74.41649628    4.90999985    2.64000010
   12.56916618   75.65540314    4.90999985    2.66000009
   12.57222176   74.60759735    4.90999985    2.64000010
   12.57555580   72.35759735    4.90999985    2.64000010
   12.58027744   72.35759735    4.90999985    2.64000010
   12.58444405   75.75340271    4.90999985    2.66000009
   12.58749962   75.89320374    4.90999985    2.66000009
   12.59083271   76.51670074    4.90999985    2.66000009
   12.59222221   76.66320038    4.90999985    2.64000010
   12.59444427   76.95369720    4.90999985    2.66000009
   12.59749985   75.67220306    4.90999985    2.66000009
   12.60083389   76.87069702    4.90999985    2.66000009
   12.60416698   75.53009796    4.90999985    2.64000010
   12.60722256   72.87010193    4.90999985    2.64000010
   12.61055565   74.87300110    4.90999985    2.64000010
   12.61388969   76.76339722    4.90999985    2.64000010
   12.61694431   75.75489807    4.90999985    2.66000009
   12.62027836   75.25119781    4.90999985    2.66000009
   12.62333393   73.64479828    4.90999985    2.64000010
   12.62666702   73.11660004    4.90999985    2.66000009
   12.63138866   73.11660004    4.90999985    2.64000010
   12.63555527   73.13610077    4.90999985    2.66000009
   12.63861084   72.77439880    4.90999985    2.66000009
   12.64194393   74.84909821    4.90999985    2.66000009
   12.64249992   72.98699951    4.90999985    2.64000010
   12.64555550   74.23130035    4.90999985    2.66000009
   12.64861107   72.15619659    4.90999985    2.66000009
   12.65194416   73.31140137    4.90999985    2.66000009
   12.65499973   73.95179749    4.90999985    2.67000008
   12.65833282   73.63700104    4.90999985    2.66000009
   12.66166592   74.38009644    4.90999985    2.66000009
   12.66472149   74.17220306    4.90999985    2.66000009
   12.66805553   74.28029633    4.90999985    2.64000010
   12.67138958   74.06230164    4.90999985    2.66000009
   12.67444515   74.80400085    4.90999985    2.66000009
   12.67777824   72.78890228    4.90999985    2.66000009
   12.68249989   72.78890228    4.90999985    2.66000009
   12.68666649   74.86879730    4.90999985    2.66000009
   12.68972206   74.20420074    4.90999985    2.67000008
   12.69250011   73.76049805    4.90999985    2.66000009
   12.69361115   73.47370148    4.90999985    2.67000008
   12.69666672   74.84159851    4.90999985    2.67000008
   12.69999981   72.60060120    4.90999985    2.66000009
   12.70305538   78.90489960    4.90999985    2.67000008
   12.70638847   76.31749725    4.90999985    2.66000009
   12.70972157   77.09290314    4.90999985    2.66000009
   12.71277714   74.19480133    4.90999985    2.66000009
   12.71611118   75.19719696    4.90999985    2.66000009
   12.71944427   73.06790161    4.90999985    2.67000008
   12.72249985   73.57959747    4.90999985    2.67000008
   12.72583294   73.23619843    4.90999985    2.67000008
   12.72888851   74.43890381    4.90999985    2.66000009
   12.73361111   74.43890381    4.90999985    2.67000008
   12.73777771   75.86910248    4.90999985    2.66000009
   12.74111176   76.23269653    4.90999985    2.67000008
   12.74250031   75.17800140    4.90999985    2.66000009
   12.74472237   74.59230042    4.90999985    2.66000009
   12.74777794   77.07929993    4.90999985    2.66000009
   12.75111103   74.66419983    4.90999985    2.66000009
   12.75416660   80.91030121    4.90999985    2.67000008
   12.75749969   74.84410095    4.90999985    2.66000009
   12.76083374   76.00370026    4.90999985    2.67000008
   12.76388931   75.93820190    4.90999985    2.67000008
   12.76722240   75.98040009    4.90999985    2.66000009
   12.77055550   78.54889679    4.90999985    2.66000009
   12.77361107   73.75550079    4.90999985    2.66000009
   12.77694416   73.48290253    4.90999985    2.66000009
   12.77999973   72.09230042    4.90999985    2.66000009
   12.78472233   72.09230042    4.90999985    2.66000009
   12.78888893   75.65529633    4.90999985    2.67000008
   12.79222298   73.16580200    4.90999985    2.67000008
   12.79277802   73.13279724    4.90999985    2.67000008
   12.79611111   73.21759796    4.90999985    2.69000006
   12.79916668   76.59030151    4.90999985    2.71000004
   12.80249977   75.17209625    4.90999985    2.69000006
   12.80555534   72.75599670    4.90999985    2.69000006
   12.80888939   78.98210144    4.90999985    2.69000006
   12.81222248   74.43289948    4.90999985    2.55999994
   12.81527805   74.76069641    4.90999985    2.69000006
   12.81861115   73.98239899    4.90999985    2.67000008
   12.82194424   72.10700226    4.90999985    2.71000004
   12.82499981   74.17430115    4.90999985    2.69000006
   12.82833290   79.46199799    4.90999985    2.69000006
   12.83138847   72.94840240    4.90999985    2.66000009
   12.83611107   72.94840240    4.90999985    2.67000008
   12.84027767   72.11139679    4.90999985    2.66000009
   12.84277725   74.02269745    4.90999985    2.67000008
   12.84388828   72.91459656    4.90999985    2.67000008
   12.84694386   72.84549713    4.90999985    2.67000008
   12.85027790   73.73449707    4.90999985    2.67000008
   12.85333347   74.40290070    4.90999985    2.67000008
   12.85666752   74.02349854    4.90999985    2.67000008
   12.86000061   74.47229767    4.90999985    2.67000008
   12.86305618   73.12139893    4.90999985    2.67000008
   12.86638927   74.89540100    4.90999985    2.69000006
   12.86972237   76.21690369    4.90999985    2.67000008
   12.87277794   74.05079651    4.90999985    2.66000009
   12.87611103   72.34390259    4.90999985    2.67000008
   12.87916660   73.43699646    4.90999985    2.66000009
   12.88249969   74.51640320    4.90999985    2.69000006
   12.88722229   74.51640320    4.90999985    2.69000006
   12.89138889   72.42939758    4.90999985    2.67000008
   12.89277744   73.37500000    4.90999985    2.67000008
   12.89499950   75.26809692    4.90999985    2.69000006
   12.89805508   75.78079987    4.90999985    2.67000008
   12.90138817   72.62180328    4.90999985    2.67000008
   12.90472221   73.90290070    4.90999985    2.69000006
   12.90777779   77.05999756    4.90999985    2.67000008
   12.91111088   76.07150269    4.90999985    2.69000006
   12.91416645   75.69219971    4.90999985    2.69000006
   12.91750050   78.82350159    4.90999985    2.69000006
   12.92083359   73.23139954    4.90999985    2.69000006
   12.92388916   73.19370270    4.90999985    2.69000006
   12.92722225   75.67269897    4.90999985    2.69000006
   12.93055630   76.38529968    4.90999985    2.69000006
   12.93361092   73.08699799    4.90999985    2.69000006
   12.93833351   73.08699799    4.90999985    2.69000006
   12.94250011   74.65769958    4.90999985    2.69000006
   12.94305515   74.54650116    4.90999985    2.69000006
   12.94638920   77.50360107    4.90999985    2.69000006
   12.94944477   85.28179932    4.90999985    2.69000006
   12.95277786   73.27050018    4.90999985    2.66000009
   12.95611095   73.96769714    4.90999985    2.69000006
   12.95916653   71.09709930    4.90999985    2.69000006
   12.96249962   74.65579987    4.90999985    2.69000006
   12.96555519   76.53489685    4.90999985    2.67000008
   12.96888828   76.09809875    4.90999985    2.69000006
   12.97222137   72.97650146    4.90999985    2.69000006
   12.97527695   73.42420197    4.90999985    2.69000006
   12.97861099   -1.00000000    4.90999985    2.78999996
   12.98194408   77.81629944    4.90999985    1.03999996
   12.98500061   74.20659637    4.90999985    2.71000004
   12.98944473   74.20659637    4.90999985    2.67000008
   12.99361134   74.72660065    4.90999985    2.67000008
   12.99694443   74.26380157    4.90999985    2.64000010
   13.00027752   76.29989624    4.90999985    2.69000006
   13.00333309   78.95079803    4.90999985    2.69000006
   13.00666714   78.57080078    4.90999985    2.69000006
   13.00972176   72.22180176    4.90999985    2.69000006
   13.01305580   74.54489899    4.90999985    2.69000006
   13.01638889   73.80770111    4.90999985    2.71000004
   13.01944447   74.82969666    4.90999985    2.67000008
   13.02277756   78.14600372    4.90999985    2.69000006
   13.02611065   76.47619629    4.90999985    2.67000008
   13.02916622   72.24900055    4.90999985    2.67000008
   13.03249931   77.34629822    4.90999985    2.67000008
   13.03555584   74.07939911    4.90999985    2.69000006
   13.04083347   74.07939911    4.90999985    2.71000004
   13.04500008   74.52439880    4.90999985    2.71000004
   13.04805565   72.83180237    4.90999985    2.69000006
   13.05138874   74.89129639    4.90999985    2.69000006
   13.05444431   73.71939850    4.90999985    2.71000004
   13.05777836   76.39649963    4.90999985    2.69000006
   13.06111145   73.58979797    4.90999985    2.69000006
   13.06416702   73.89620209    4.90999985    2.69000006
   13.06750011   75.66269684    4.90999985    2.69000006
   13.07083321   73.05629730    4.90999985    2.69000006
   13.07388878   76.08589935    4.90999985    2.69000006
   13.07722187   75.29010010    4.90999985    2.71000004
   13.08027744   73.71260071    4.90999985    2.69000006
   13.08361053   77.37079620    4.90999985    2.69000006
   13.08694458   73.79019928    4.90999985    2.59999990
   13.09194374   73.79019928    4.90999985    2.73000002
   13.09611034   72.41259766    4.90999985    2.73000002
   13.09916592   72.64430237    4.90999985    2.71000004
   13.10249996   75.08999634    4.90999985    2.71000004
   13.10583401   73.56639862    4.90999985    2.71000004
   13.10888958   73.48349762    4.90999985    2.71000004
   13.11222267   74.36150360    4.90999985    2.69000006
   13.11555576   76.52660370    4.90999985    2.71000004
   13.11861134   76.01619720    4.90999985    2.69000006
   13.12194443   74.76270294    4.90999985    2.69000006
   13.12527752   74.93560028    4.90999985    2.69000006
   13.12833309   73.86969757    4.90999985    2.69000006
   13.13166714   75.87979889    4.90999985    2.69000006
   13.13527775   74.05549622    4.90999985    2.69000006
   13.13833332   72.60959625    4.90999985    2.71000004
   13.15944386   76.08090210    4.90999985    2.69000006
   13.15999985   77.62960052    4.90999985    2.69000006
   13.16305542   72.72190094    4.90999985    2.69000006
   13.16638851   75.90229797    4.90999985    2.69000006
   13.16972256   75.43810272    4.90999985    2.69000006
   13.17277813   74.72879791    4.90999985    2.69000006
   13.17611122   75.96730042    4.90999985    2.71000004
   13.17944431   76.19010162    4.90999985    2.69000006
   13.18249989   74.10350037    4.90999985    2.71000004
   13.18583298   73.51889801    4.90999985    2.71000004
   13.18888855   74.36080170    4.90999985    2.71000004
   13.19444466   74.36080170    4.90999985    2.69000006
   13.19861126   75.89610291    4.90999985    2.69000006
   13.20166683   74.99320221    4.90999985    2.71000004
   13.20499992   75.94259644    4.90999985    2.69000006
   13.20833302   75.74500275    4.90999985    2.71000004
   13.20944405   75.66190338    4.90999985    2.71000004
   13.21194458   76.41690063    4.90999985    2.71000004
   13.21500015   75.64199829    4.90999985    2.71000004
   13.21833324   72.84950256    4.90999985    2.71000004
   13.22138882   72.86990356    4.90999985    2.69000006
   13.22472191   75.69370270    4.90999985    2.71000004
   13.22805500   75.48600006    4.90999985    2.69000006
   13.23111057   72.72460175    4.90999985    2.69000006
   13.23444462   72.35019684    4.90999985    2.71000004
   13.23777771   72.71649933    4.90999985    2.69000006
   13.24083328   73.09770203    4.90999985    2.69000006
   13.24555588   73.09770203    4.90999985    2.71000004
   13.24972248   75.89939880    4.90999985    2.71000004
   13.25305557   74.86470032    4.90999985    2.71000004
   13.25638866   75.39949799    4.90999985    2.71000004
   13.25944424   74.99579620    4.90999985    2.71000004
   13.26055527   73.16500092    4.90999985    2.73000002
