    HOUR (UT)   FLARE FACTOR    SKY TESTER    SUN TESTER
   11.34583282   -1.00000000   -1.00000000   -1.00000000
   11.38833332   86.00180054    4.90999985    2.51999998
   11.39138889   88.92179871    4.90999985    2.50000000
   11.39472198   95.29910278    4.90999985    2.51999998
   11.39805508   89.90070343    4.90999985    2.51999998
   11.40111065   86.06710052    4.90999985    2.51999998
   11.40444374   86.43209839    4.90999985    2.51999998
   11.40777779   86.17440033    4.90999985    2.51999998
   11.41083336   91.21610260    4.90999985    2.51999998
   11.41694450   91.21610260    4.90999985    2.51999998
   11.42111111   86.19539642    4.90999985    2.51999998
   11.42416668   84.46739960    4.90999985    2.51999998
   11.42750072   95.12419891    4.90999985    2.51999998
   11.43055630   87.39820099    4.90999985    2.51999998
   11.43388939   86.96219635    4.90999985    2.53999996
   11.43722248   88.45529938    4.90999985    2.51999998
   11.43833351   85.99749756    4.90999985    2.53999996
   11.44055557   89.42160034    4.90999985    2.53999996
   11.44388866   88.21160126    4.90999985    2.51999998
   11.44722271   85.72180176    4.90999985    2.53999996
   11.45027733   88.31199646    4.90999985    2.53999996
   11.45361137   89.67720032    4.90999985    2.53999996
   11.45666695   84.72899628    4.90999985    2.53999996
   11.46000004   89.89129639    4.90999985    2.53999996
   11.46333313   86.54299927    4.90999985    2.53999996
   11.46805477   86.54299927    4.90999985    2.53999996
   11.47222137   84.95400238    4.90999985    2.55999994
   11.47527695   87.58609772    4.90999985    2.53999996
   11.47861099   82.39839935    4.90999985    2.53999996
   11.48194408   85.32890320    4.90999985    2.53999996
   11.48500061   90.34819794    4.90999985    2.53999996
   11.48833370   89.94110107    4.90999985    2.53999996
   11.48861122   82.43979645    4.90999985    2.53999996
   11.49194431   91.16390228    4.90999985    2.53999996
   11.49527836   83.39330292    4.90999985    2.53999996
   11.49833393   90.57980347    4.90999985    2.53999996
   11.50166702   88.62429810    4.90999985    2.55999994
   11.50472260   84.46959686    4.90999985    2.55999994
   11.50805569   82.05090332    4.90999985    2.55999994
   11.51138878   86.21240234    4.90999985    2.55999994
   11.51444435   81.83619690    4.90999985    2.55999994
   11.51916599   81.83619690    4.90999985    2.55999994
   11.52333355   86.99469757    4.90999985    2.55999994
   11.52666664   82.71949768    4.90999985    2.55999994
   11.52972221   83.12020111    4.90999985    2.55999994
   11.53305531   80.99120331    4.90999985    2.55999994
   11.53638935   85.71009827    4.90999985    2.55999994
   11.53833389   87.55539703    4.90999985    2.55999994
   11.53972244   85.61430359    4.90999985    2.55999994
   11.54305553   85.28820038    4.90999985    2.55999994
   11.54638958   80.61309814    4.90999985    2.55999994
   11.54944515   78.61679840    4.90999985    2.55999994
   11.55277824   84.98269653    4.90999985    2.55999994
   11.55611134   83.33489990    4.90999985    2.57999992
   11.55916691   83.40679932    4.90999985    2.57999992
   11.56250000   81.04479980    4.90999985    2.57999992
   11.56555557   80.20580292    4.90999985    2.57999992
   11.57027817   80.20580292    4.90999985    2.57999992
   11.57444477   85.08209991    4.90999985    2.57999992
   11.57777786   83.15750122    4.90999985    2.57999992
   11.58111095   84.09899902    4.90999985    2.59999990
   11.58416653   81.46820068    4.90999985    2.57999992
   11.58749962   86.59980011    4.90999985    2.57999992
   11.58833313   83.83920288    4.90999985    2.57999992
   11.59083271   92.46880341    4.90999985    2.57999992
   11.59416676   79.12860107    4.90999985    2.57999992
   11.59749985   84.07409668    4.90999985    2.57999992
   11.60055637   84.94719696    4.90999985    2.59999990
   11.60388947   88.31459808    4.90999985    2.59999990
   11.60722256   83.18479919    4.90999985    2.59999990
   11.61027813   82.65080261    4.90999985    2.59999990
   11.61361122   82.42859650    4.90999985    2.59999990
   11.61666679   83.28330231    4.90999985    2.59999990
   11.62166691   83.28330231    4.90999985    2.59999990
   11.62583351   87.89260101    4.90999985    2.59999990
   11.62888908   87.44909668    4.90999985    2.59999990
   11.63222218   83.90630341    4.90999985    2.59999990
   11.63527775   82.98940277    4.90999985    2.59999990
   11.63833332   81.02590179    4.90999985    2.59999990
   11.63888836   84.81300354    4.90999985    2.59999990
   11.64222240   78.62359619    4.90999985    2.59999990
   11.64555550   83.98899841    4.90999985    2.59999990
   11.64861107   85.90480042    4.90999985    2.59999990
   11.65194416   81.85700226    4.90999985    2.59999990
   11.65527725   83.65660095    4.90999985    2.61999989
   11.65833282   82.24749756    4.90999985    2.61999989
   11.66166592   85.31900024    4.90999985    2.59999990
   11.66472149   79.30970001    4.90999985    2.59999990
   11.66805553   79.39089966    4.90999985    2.59999990
   11.67277813   79.39089966    4.90999985    2.61999989
   11.67694473   85.08830261    4.90999985    2.61999989
   11.68000031   84.93270111    4.90999985    2.59999990
   11.68333340   82.47679901    4.90999985    2.61999989
   11.68666649   80.62190247    4.90999985    2.61999989
   11.68833351   79.06130219    4.90999985    2.59999990
   11.69000053   81.11730194    4.90999985    2.59999990
   11.69333363   82.58860016    4.90999985    2.59999990
   11.69666672   80.78700256    4.90999985    2.61999989
   11.69999981   81.36509705    4.90999985    2.61999989
   11.70305538   84.35189819    4.90999985    2.61999989
   11.70638847   84.56179810    4.90999985    2.59999990
   11.70944405  101.11100006    4.90999985    2.64000010
   11.71277714   90.53880310    4.90999985    2.61999989
   11.71611118   83.32279968    4.90999985    2.61999989
   11.71916580   84.68450165    4.90999985    2.61999989
   11.72388840   84.68450165    4.90999985    2.61999989
   11.72805500   81.16149902    4.90999985    2.64000010
   11.73138809   79.44830322    4.90999985    2.61999989
   11.73444462   77.86100006    4.90999985    2.61999989
   11.73777771   85.06050110    4.90999985    2.61999989
   11.73833370   86.46520233    4.90999985    2.61999989
   11.74138927   80.41459656    4.90999985    2.61999989
   11.74444485   78.73850250    4.90999985    2.64000010
   11.74777794   77.79409790    4.90999985    2.64000010
   11.75111103   80.87220001    4.90999985    2.64000010
   11.75416660   81.89009857    4.90999985    2.64000010
   11.75749969   85.17050171    4.90999985    2.64000010
   11.76083374   81.28579712    4.90999985    2.64000010
   11.76388931   84.98639679    4.90999985    2.64000010
   11.76722240   80.27449799    4.90999985    2.64000010
   11.77027798   80.28489685    4.90999985    2.64000010
   11.77499962   80.28489685    4.90999985    2.64000010
   11.77916622   84.88249969    4.90999985    2.64000010
   11.78249931   80.82299805    4.90999985    2.64000010
   11.78583336   79.87169647    4.90999985    2.64000010
   11.78833389   79.76570129    4.90999985    2.64000010
   11.78944492   77.02790070    4.90999985    2.66000009
   11.79250050   78.87590027    4.90999985    2.61999989
   11.79583359   84.06520081    4.90999985    2.64000010
   11.79916668   82.48760223    4.90999985    2.64000010
   11.80222225   75.52410126    4.90999985    2.64000010
   11.80555534   80.71929932    4.90999985    2.66000009
   11.80888939   78.37409973    4.90999985    2.66000009
   11.81194496   80.68489838    4.90999985    2.64000010
   11.81527805   90.30359650    4.90999985    2.64000010
   11.81833363   79.08550262    4.90999985    2.66000009
   11.82166672   77.87020111    4.90999985    2.66000009
   11.82638836   77.87020111    4.90999985    2.66000009
   11.83055592   79.89009857    4.90999985    2.67000008
   11.83361053   86.72229767    4.90999985    2.66000009
   11.83694458   77.60810089    4.90999985    2.66000009
   11.83833313   79.16580200    4.90999985    2.66000009
   11.84055519   78.70510101    4.90999985    2.66000009
   11.84361076   81.37819672    4.90999985    2.66000009
   11.84694386   80.58049774    4.90999985    2.66000009
   11.85027790   78.08630371    4.90999985    2.66000009
   11.85333347   81.39060211    4.90999985    2.64000010
   11.85666752   78.36309814    4.90999985    2.66000009
   11.86000061   77.22470093    4.90999985    2.67000008
   11.86305618   85.87830353    4.90999985    2.66000009
   11.86638927   78.10659790    4.90999985    2.66000009
   11.86972237   83.31749725    4.90999985    2.67000008
   11.87277794   81.64589691    4.90999985    2.66000009
   11.87750053   81.64589691    4.90999985    2.67000008
   11.88166714   87.48780060    4.90999985    2.66000009
   11.88472176   78.63289642    4.90999985    2.67000008
   11.88805580   90.58129883    4.90999985    2.67000008
   11.88861084   84.03130341    4.90999985    2.67000008
   11.89166641   80.21990204    4.90999985    2.69000006
   11.89472198   84.43029785    4.90999985    2.67000008
   11.89805508   84.53089905    4.90999985    2.67000008
   11.90138817   82.91390228    4.90999985    2.66000009
   11.90444374   79.52729797    4.90999985    2.67000008
   11.90777779   81.00170135    4.90999985    2.67000008
   11.91111088   79.28350067    4.90999985    2.66000009
   11.91416645   81.23280334    4.90999985    2.66000009
   11.91750050   85.68910217    4.90999985    2.67000008
   11.92055607   84.22270203    4.90999985    2.67000008
   11.92388916   82.36569977    4.90999985    2.66000009
   11.92861176   82.36569977    4.90999985    2.67000008
   11.93277836   87.33560181    4.90999985    2.66000009
   11.93611145   81.03109741    4.90999985    2.66000009
   11.93861103   78.54260254    4.90999985    2.67000008
   11.93972206   82.44029999    4.90999985    2.67000008
   11.94277763   79.64769745    4.90999985    2.67000008
   11.94611073   74.88020325    4.90999985    2.69000006
   11.94944477   82.51039886    4.90999985    2.67000008
   11.95249939   81.37039948    4.90999985    2.66000009
   11.95583344   78.15820313    4.90999985    2.67000008
   11.95916653   77.71320343    4.90999985    2.69000006
   11.96222210   79.90879822    4.90999985    2.67000008
   11.96555519   77.15579987    4.90999985    2.67000008
   11.96861076   78.52619934    4.90999985    2.69000006
   11.97194386   77.61289978    4.90999985    2.69000006
   11.97527695   81.71600342    4.90999985    2.69000006
   11.97972202   81.71600342    4.90999985    2.67000008
   11.98388958   79.26390076    4.90999985    2.69000006
   11.98722267   78.92960358    4.90999985    2.69000006
   11.98861122   85.00319672    4.90999985    2.69000006
   11.99083328   75.42549896    4.90999985    2.67000008
   11.99388885   80.92680359    4.90999985    2.69000006
   11.99722290   80.71170044    4.90999985    2.69000006
   12.00055599   79.18769836    4.90999985    2.67000008
   12.00361156   78.08000183    4.90999985    2.69000006
   12.00694466   80.19309998    4.90999985    2.69000006
   12.01027775   78.86499786    4.90999985    2.69000006
   12.01333332   77.63960266    4.90999985    2.69000006
   12.01666641   77.46970367    4.90999985    2.69000006
   12.01972198   81.13670349    4.90999985    2.69000006
   12.02305508   74.78980255    4.90999985    2.67000008
   12.02666664   80.71009827    4.90999985    2.69000006
   12.03166676   80.71009827    4.90999985    2.71000004
   12.03583336   79.58779907    4.90999985    2.69000006
   12.04138947   75.06420135    4.90999985    2.69000006
   12.04250050   78.10269928    4.90999985    2.69000006
   12.04583359   80.09750366    4.90999985    2.69000006
   12.04972267   77.11859894    4.90999985    2.69000006
   12.05305576   75.61129761    4.90999985    2.69000006
   12.05777836   74.90540314    4.90999985    2.71000004
   12.06222248   76.35669708    4.90999985    2.71000004
   12.06666660   79.17700195    4.90999985    2.71000004
   12.07055569   76.22699738    4.90999985    2.71000004
   12.07388878   77.43650055    4.90999985    2.71000004
   12.07805538   77.90540314    4.90999985    2.73000002
   12.08277798   77.90540314    4.90999985    2.69000006
   12.08694458   77.66699982    4.90999985    2.71000004
   12.09000015   78.96530151    4.90999985    2.71000004
   12.09083271   76.55549622    4.90999985    2.71000004
   12.09416676   74.76290131    4.90999985    2.71000004
   12.09749985   79.34269714    4.90999985    2.71000004
   12.10055637   79.26840210    4.90999985    2.69000006
   12.10388947   75.54199982    4.90999985    2.71000004
   12.10722256   77.39050293    4.90999985    2.71000004
   12.11055565   79.24490356    4.90999985    2.71000004
   12.11361122   85.79000092    4.90999985    2.71000004
   12.11694431   77.27519989    4.90999985    2.73000002
   12.12055588   76.31369781    4.90999985    2.71000004
   12.12361145   77.27220154    4.90999985    2.73000002
   12.12694454   77.61380005    4.90999985    2.73000002
   12.13388920   77.61380005    4.90999985    2.71000004
   12.13805580   77.32430267    4.90999985    2.71000004
   12.14000034   77.40670013    4.90999985    2.71000004
   12.14166641   75.69869995    4.90999985    2.71000004
   12.14499950   75.50420380    4.90999985    2.73000002
   12.14805508   78.85389709    4.90999985    2.71000004
   12.15138817   76.56610107    4.90999985    2.71000004
   12.15472221   76.10109711    4.90999985    2.73000002
   12.15805531   76.47979736    4.90999985    2.71000004
   12.16138840   77.73410034    4.90999985    2.71000004
   12.16472149   77.00409698    4.90999985    2.71000004
   12.16888905   78.17250061    4.90999985    2.71000004
   12.17305565   76.33660126    4.90999985    2.73000002
   12.17694473   79.11900330    4.90999985    2.71000004
   12.18027782   76.84870148    4.90999985    2.71000004
   12.18472195   76.84870148    4.90999985    2.71000004
   12.18916702   74.82569885    4.90999985    2.73000002
   12.19000053   80.80629730    4.90999985    2.71000004
   12.19305515   77.37509918    4.90999985    2.73000002
   12.19638920   77.76239777    4.90999985    2.71000004
   12.19972229   79.82260132    4.90999985    2.73000002
   12.20333290   76.12629700    4.90999985    2.73000002
   12.20666695   74.83560181    4.90999985    2.73000002
   12.21000004   77.93080139    4.90999985    2.73000002
   12.21333313   74.30639648    4.90999985    2.73000002
   12.21666622   76.58059692    4.90999985    2.73000002
   12.21999931   74.08719635    4.90999985    2.73000002
   12.22333336   75.39869690    4.90999985    2.75000000
   12.22638798   80.00350189    4.90999985    2.75000000
   12.22972202   79.91829681    4.90999985    2.73000002
   12.23611164   79.91829681    4.90999985    2.75000000
   12.24027824   76.45240021    4.90999985    2.75000000
   12.24388885   76.58889771    4.90999985    2.75000000
   12.24722290   79.20110321    4.90999985    2.75000000
   12.25055599   74.98570251    4.90999985    2.75000000
   12.25388908   76.82289886    4.90999985    2.75000000
   12.25722218   77.68399811    4.90999985    2.75000000
   12.26083374   76.25260162    4.90999985    2.73000002
   12.26416683   73.91670227    4.90999985    2.75000000
   12.26749992   73.33370209    4.90999985    2.75000000
   12.27083302   75.19249725    4.90999985    2.75000000
   12.27416611   78.61620331    4.90999985    2.75000000
   12.27750015   78.18669891    4.90999985    2.75000000
   12.28083324   79.49089813    4.90999985    2.75000000
   12.28750038   79.49089813    4.90999985    2.73000002
   12.29166698   82.92549896    4.90999985    2.75000000
   12.29500008   76.31079865    4.90999985    2.75000000
   12.29833412   77.09510040    4.90999985    2.75000000
   12.30166721   83.80829620    4.90999985    2.75000000
   12.30527782   75.79570007    4.90999985    2.75000000
   12.30833340   78.20619965    4.90999985    2.76999998
   12.31166649   83.23229980    4.90999985    2.75000000
   12.31500053   77.49060059    4.90999985    2.75000000
   12.31805515   78.00810242    4.90999985    2.76999998
   12.32138920   72.32140350    4.90999985    2.75000000
   12.32472229   74.12799835    4.90999985    2.76999998
   12.32805538   74.72869873    4.90999985    2.75000000
   12.33138847   75.13089752    4.90999985    2.75000000
   12.33444405   76.57160187    4.90999985    2.76999998
   12.33861065   76.57160187    4.90999985    2.75000000
   12.34277725   78.96659851    4.90999985    2.75000000
   12.34611034   76.46820068    4.90999985    2.75000000
   12.34916592   76.59709930    4.90999985    2.73000002
   12.35249996   76.41359711    4.90999985    2.75000000
   12.35583401   75.15360260    4.90999985    2.76999998
   12.35916710   83.42990112    4.90999985    2.76999998
   12.36305618   79.51599884    4.90999985    2.76999998
   12.36638927   78.11710358    4.90999985    2.76999998
   12.36944485   78.19629669    4.90999985    2.76999998
   12.37277794   78.89969635    4.90999985    2.76999998
   12.37611103   79.78079987    4.90999985    2.76999998
   12.37916660   76.51319885    4.90999985    2.76999998
   12.38249969   84.33860016    4.90999985    2.76999998
   12.38583279   85.43009949    4.90999985    2.76999998
   12.40638828   79.56659698    4.90999985    2.78999996
   12.40694427   81.01080322    4.90999985    2.78999996
   12.41027737   75.33039856    4.90999985    2.78999996
   12.41361046   78.22640228    4.90999985    2.76999998
   12.41694450   78.16220093    4.90999985    2.78999996
   12.42027855   81.99690247    4.90999985    2.76999998
   12.42361164   81.57980347    4.90999985    2.76999998
   12.42694473   79.57759857    4.90999985    2.78999996
   12.43000031   80.45800018    4.90999985    2.76999998
   12.43333340   75.03820038    4.90999985    2.78999996
   12.43666649   76.01380157    4.90999985    2.78999996
   12.44138908   76.01380157    4.90999985    2.78999996
   12.44555569   77.07640076    4.90999985    2.76999998
   12.44888878   80.95159912    4.90999985    2.78999996
   12.45194435   79.75219727    4.90999985    2.76999998
   12.45527744   79.97779846    4.90999985    2.75000000
   12.45611095   76.90769958    4.90999985    2.76999998
   12.45916653   76.64240265    4.90999985    2.78999996
   12.46249962   78.47709656    4.90999985    2.78999996
   12.46555519   79.83840179    4.90999985    2.76999998
   12.46916580   84.11109924    4.90999985    2.78999996
   12.47222137   78.51650238    4.90999985    2.76999998
   12.47583294   77.26349640    4.90999985    2.76999998
   12.47916603   75.45590210    4.90999985    2.76999998
   12.48249912   75.14749908    4.90999985    2.76999998
   12.48583317   80.41850281    4.90999985    2.78999996
   12.49277782   80.41850281    4.90999985    2.78999996
   12.49694443   74.52469635    4.90999985    2.78999996
   12.50027752   76.08789825    4.90999985    2.78999996
   12.50333309   74.37830353    4.90999985    2.76999998
   12.50638866   75.56909943    4.90999985    2.76999998
   12.50749969   75.98280334    4.90999985    2.78999996
   12.51055527   76.06590271    4.90999985    2.76999998
   12.51388931   75.97779846    4.90999985    2.78999996
   12.51694393   75.69159698    4.90999985    2.78999996
   12.52027798   74.17919922    4.90999985    2.80999994
   12.52361107   76.31330109    4.90999985    2.78999996
   12.52694416   72.63189697    4.90999985    2.76999998
   12.53027725   77.30159760    4.90999985    2.78999996
   12.53333378   78.90850067    4.90999985    2.78999996
