    HOUR (UT)   FLARE FACTOR    SKY TESTER    SUN TESTER
   12.33861065   -1.00000000   -1.00000000   -1.00000000
   12.35888958  236.90800476    2.98000002    1.96000004
   12.36416721  193.33700562    2.93000007    1.96000004
   12.36722279  158.84599304    2.91000009    1.96000004
   12.37055588  180.53100586    2.86999989    1.98000002
   12.37361145  181.07000732    2.78999996    1.98000002
   12.37694454  185.66000366    2.71000004    1.98000002
   12.38027763  189.82899475    2.57999992    1.98000002
   12.38333321  204.56100464    2.48000002    1.98000002
   12.38666630  208.04100037    2.40000010    1.98000002
   12.39000034  214.93099976    2.34999990    1.98000002
   12.39222240  205.82299805    2.32999992    1.98000002
   12.39361095  214.32800293    2.30999994    1.98000002
   12.39694405  196.87199402    2.26999998    1.98000002
   12.40027714  183.14500427    2.21000004    2.00000000
   12.40333271  163.33099365    2.11999989    2.00000000
   12.40666676  206.47799683    2.03999996    2.00000000
   12.40999985  251.85000610    1.98000002    2.00000000
   12.41333294  212.61300659    1.50000000    2.00000000
   12.41638851  189.85699463    1.46000004    2.00000000
   12.42055607  212.74000549    1.48000002    2.00000000
   12.42388916  250.12800598    1.46000004    2.00000000
   12.42555618  253.14900208    1.46000004    2.00000000
   12.42722225  244.58999634    1.46000004    2.01999998
   12.43055630  203.49800110    1.44000006    2.01999998
   12.43388939  253.55599976    1.41999996    2.01999998
   12.43694496  260.03799438    1.36000001    2.01999998
   12.44027805  221.60800171    1.34000003    2.01999998
   12.44361115  206.69400024    1.33000004    2.01999998
   12.44666672  180.14500427    1.33000004    2.01999998
   12.44999981  190.99600220    1.33000004    2.01999998
   12.45333290  187.57099915    1.33000004    2.01999998
   12.45638847  187.47799683    1.30999994    2.01999998
   12.45888901  178.00700378    1.30999994    2.03999996
   12.46000004  176.82699585    1.30999994    2.01999998
   12.46333313  204.67999268    1.28999996    2.01999998
   12.46666622  208.44200134    1.26999998    2.03999996
   12.46972179  189.41999817    1.26999998    2.01999998
   12.47305489  196.02799988    1.26999998    2.01999998
   12.47611046  193.22999573    1.26999998    2.01999998
   12.47944355  214.63699341    1.28999996    2.01999998
   12.48277760  228.62300110    1.36000001    2.03999996
   12.48583317  193.36700439    1.38000000    2.03999996
   12.48916721  228.76899719    1.38000000    2.03999996
   12.49222279  230.03999329    1.39999998    2.05999994
   12.49277782  198.91900635    1.39999998    2.05999994
   12.49611092  186.44599915    1.39999998    2.05999994
   12.49944496  206.98800659    1.39999998    2.03999996
   12.50249958  185.36700439    1.39999998    2.05999994
   12.50583363  211.10400391    1.41999996    2.05999994
   12.50888920  201.80099487    1.44000006    2.05999994
   12.51222229  201.09800720    1.44000006    2.05999994
   12.51555538  213.66900635    1.44000006    2.05999994
   12.51861095  193.71600342    1.41999996    2.07999992
   12.52194405  159.99099731    1.41999996    2.07999992
   12.52527714  173.12899780    1.41999996    2.07999992
   12.52583313  190.88499451    1.41999996    2.07999992
   12.52888870  196.15499878    1.41999996    2.07999992
   12.53222179  205.54100037    1.44000006    2.07999992
   12.53555584  187.14300537    1.46000004    2.09999990
   12.53861141  161.15899658    1.48000002    2.09999990
   12.54194450  163.65199280    1.51999998    2.09999990
   12.54527855  183.16600037    1.55999994    2.09999990
   12.54833412  189.97300720    1.58000004    2.09999990
   12.55166721  206.75000000    1.60000002    2.09999990
   12.55472279  180.46800232    1.73000002    2.09999990
   12.55805588  230.37899780    1.76999998    2.09999990
   12.55916691  197.71400452    1.76999998    2.09999990
   12.56166649  196.78199768    1.85000002    2.09999990
   12.56500053  199.19900513    1.89999998    2.09999990
   12.56833363  182.38299561    1.98000002    2.11999989
   12.57138920  200.86099243    2.07999992    2.13000011
   12.57472229  198.72900391    2.15000010    2.13000011
   12.57805538  192.91499329    2.21000004    2.13000011
   12.58111095  206.08200073    2.25000000    2.13000011
   12.58444405  191.49099731    2.32999992    2.13000011
   12.58749962  180.15699768    2.59999990    2.13000011
   12.59083271  175.40400696    3.11999989    2.13000011
   12.59249973  166.18899536    3.34999990    2.13000011
   12.59444427  182.45500183    3.55999994    2.13000011
   12.59777737  178.55099487    3.82999992    2.13000011
   12.60111141  180.73100281    3.91000009    2.15000010
   12.60416698  168.74499512    3.95000005    2.13000011
   12.60750008  168.81300354    3.97000003    2.13000011
   12.61083412  193.89199829    3.84999990    2.11999989
   12.61388969  175.61000061    3.68000007    2.07999992
   12.61722279  160.95500183    3.55999994    2.13000011
   12.62055588  175.67700195    3.50000000    2.17000008
   12.62361145  161.83000183    3.53999996    2.17000008
   12.62583351  156.47300720    3.66000009    2.15000010
   12.62722206  151.00700378    3.84999990    2.17000008
   12.63055611  200.22599792    4.42999983    2.15000010
   12.63388920  172.81799316    4.90999985    2.13000011
   12.63694477  190.46899414    4.90999985    2.13000011
   12.64027786  167.17100525    4.90999985    2.13000011
   12.64361095  188.25999451    4.90999985    2.17000008
   12.64666653  164.61199951    4.90999985    2.19000006
   12.64999962  214.82600403    4.90999985    2.19000006
   12.65305519  233.43800354    4.90999985    2.05999994
   12.65638828  188.02400208    4.90999985    2.09999990
   12.65916634  194.16299438    4.90999985    2.13000011
   12.65999985  204.38000488    4.90999985    2.13000011
   12.66333294  163.06100464    4.90999985    2.15000010
   12.66666698  144.58500671    4.90999985    2.11999989
   12.66972256  220.77099609    4.90999985    2.05999994
   12.67305565  473.03100586    4.90999985    1.86000001
   12.67500019  453.20001221    4.90999985    1.86000001
   12.67638874  266.03298950    4.90999985    1.86000001
   12.67777824  257.12298584    4.90999985    1.89999998
   12.67916679  229.96400452    4.90999985    1.98000002
   12.67916679  204.38000488    4.90999985    2.13000011
   12.67944431  163.06100464    4.90999985    2.15000010
   12.67944431  144.58500671    4.90999985    2.11999989
   12.67944431  220.77099609    4.90999985    2.05999994
   12.67972279  473.03100586    4.90999985    1.86000001
   12.67972279  164.61199951    4.90999985    2.19000006
   12.67972279  214.82600403    4.90999985    2.19000006
   12.68000031  233.43800354    4.90999985    2.05999994
   12.68000031  188.02400208    4.90999985    2.09999990
   12.68055630  227.11399841    4.90999985    2.03999996
   12.68388939  249.84899902    4.90999985    2.09999990
   12.68694496  268.84201050    4.90999985    2.03999996
   12.69027805  207.04899597    4.90999985    2.01999998
   12.69361115  368.70999146    4.90999985    1.98000002
   12.69555569  357.51800537    4.90999985    1.94000006
   12.69694424  322.01800537    4.90999985    1.94000006
   12.69833374  311.10400391    4.90999985    1.91999996
   12.69972229  304.70199585    4.90999985    1.88000000
   12.70111084  366.22601318    4.90999985    1.78999996
   12.70249939  171.49000549    4.90999985    1.78999996
   12.70249939  227.11399841    4.90999985    2.03999996
   12.70249939  249.84899902    4.90999985    2.09999990
   12.70277786  268.84201050    4.90999985    2.03999996
   12.70277786  207.04899597    4.90999985    2.01999998
   12.70277786  368.70999146    4.90999985    1.98000002
   12.70333290  248.44999695    4.90999985    1.78999996
   12.70666695   -1.00000000    4.90999985    1.69000006
   12.71000004  108.99900055    4.90999985    1.44000006
   12.71305561  122.88999939    4.90999985    1.51999998
   12.71638870   90.18820190    4.90999985    1.61000001
   12.72333336   90.18820190    4.90999985    1.55999994
   12.72722149   -1.00000000    4.90999985    1.39999998
   12.73055553   -1.00000000    4.90999985    1.26999998
   12.73388958   -1.00000000    4.90999985    1.19000006
   12.73750019   -1.00000000    4.90999985    1.19000006
   12.74055576   -1.00000000    4.90999985    1.05999994
   12.74388885   -1.00000000    4.90999985    0.98000002
   12.74722290   -1.00000000    4.90999985    0.95999998
   12.75027752   -1.00000000    4.90999985    0.94000000
   12.75361156   -1.00000000    4.90999985    1.05999994
   12.75694466   -1.00000000    4.90999985    1.21000004
   12.76000023   -1.00000000    4.90999985    1.16999996
   12.76999950   -1.00000000    4.90999985    1.05999994
   12.77333355   -1.00000000    4.90999985    1.13000000
   12.77666664   -1.00000000    4.90999985    1.07000005
   12.77972221   -1.00000000    4.90999985    1.05999994
   12.78305531   -1.00000000    4.90999985    1.00000000
   12.78611183   -1.00000000    4.90999985    0.95999998
   12.78944492   -1.00000000    4.90999985    1.00000000
   12.79277802   -1.00000000    4.90999985    0.98000002
   12.79583359   -1.00000000    4.90999985    0.89999998
   13.95444393  143.62300110    4.90999985    2.53999996
   13.95916653  146.12899780    4.90999985    2.53999996
   13.96277714  137.51699829    4.90999985    2.53999996
   13.96611118  144.60200500    4.90999985    2.53999996
   13.96916580  147.57699585    4.90999985    2.53999996
   13.97472191  147.57699585    4.90999985    2.53999996
   13.97888851  160.50000000    4.90999985    2.53999996
   13.98194408  146.87300110    4.90999985    2.53999996
   13.98527813  127.45500183    4.90999985    2.51999998
   13.98777771  162.55799866    4.90999985    2.53999996
   13.98888874  145.27000427    4.90999985    2.55999994
   13.99194431  144.84599304    4.90999985    2.53999996
   13.99527836  134.82499695    4.90999985    2.53999996
   13.99833393  128.61399841    4.90999985    2.53999996
   14.00166702  143.57200623    4.90999985    2.53999996
   14.00500011  138.08599854    4.90999985    2.55999994
   14.00805569  127.61699677    4.90999985    2.53999996
   14.01138878  127.51100159    4.90999985    2.53999996
   14.12611103   -1.00000000   -1.00000000   -1.00000000
   14.22361088   -1.00000000   -1.00000000   -1.00000000
   14.32638836   -1.00000000   -1.00000000   -1.00000000
   14.36250019   76.46749878    4.90999985    2.59999990
   14.36555576  134.61799622    4.90999985    2.59999990
   14.36888885  124.74900055    4.90999985    2.59999990
   14.37222195  119.88300323    4.90999985    2.59999990
   14.37527752  122.58999634    4.90999985    2.59999990
   14.37861156  121.54699707    4.90999985    2.59999990
   14.38277817  121.54699707    4.90999985    2.61999989
   14.38694477  122.98999786    4.90999985    2.59999990
   14.39000034  117.42500305    4.90999985    2.59999990
   14.39333344  114.32199860    4.90999985    2.59999990
   14.39583302  116.53299713    4.90999985    2.59999990
   14.39694405  118.68599701    4.90999985    2.59999990
   14.40027714  120.74800110    4.90999985    2.59999990
   14.40333271  125.85500336    4.90999985    2.59999990
   14.40666676  109.29199982    4.90999985    2.59999990
   14.40999985  108.16999817    4.90999985    2.61999989
   14.41305542  126.96700287    4.90999985    2.59999990
   14.41638851  123.93499756    4.90999985    2.59999990
   14.41972256  135.59399414    4.90999985    2.59999990
   14.42555618  135.59399414    4.90999985    2.59999990
   14.42972279  120.63099670    4.90999985    2.59999990
   14.43305588  119.73200226    4.90999985    2.59999990
   14.43611145  129.10000610    4.90999985    2.59999990
   14.43944454  139.13000488    4.90999985    2.61999989
   14.44250011   95.91020203    4.90999985    2.59999990
   14.44583321  125.86900330    4.90999985    2.59999990
   14.44916630  128.22399902    4.90999985    2.59999990
   14.45222187   95.47019958    4.90999985    2.61999989
   14.45555496  123.28500366    4.90999985    2.61999989
   14.45888901  127.31300354    4.90999985    2.61999989
   14.46194458  123.27600098    4.90999985    2.59999990
   14.46249962  117.80100250    4.90999985    2.59999990
   14.46833324  117.80100250    4.90999985    2.61999989
   14.47249985  137.66799927    4.90999985    2.61999989
   14.47583294  129.55099487    4.90999985    2.61999989
   14.47888851  115.30500031    4.90999985    2.61999989
   14.48222160  137.43099976    4.90999985    2.59999990
   14.48555565  126.97000122    4.90999985    2.59999990
   14.48861122  106.11799622    4.90999985    2.61999989
   14.49194431  100.10399628    4.90999985    2.59999990
   14.49527836  121.99299622    4.90999985    2.59999990
   14.49583340  118.42099762    4.90999985    2.61999989
   14.49888897  128.94599915    4.90999985    2.61999989
   14.50222206  114.19200134    4.90999985    2.61999989
   14.50527763  105.20099640    4.90999985    2.61999989
   14.51138878  105.20099640    4.90999985    2.61999989
   14.51527786  109.17299652    4.90999985    2.59999990
   14.51861095  123.48100281    4.90999985    2.61999989
   14.52194405  115.06099701    4.90999985    2.61999989
   14.52499962  116.54799652    4.90999985    2.59999990
   14.52833271  120.24900055    4.90999985    2.61999989
   14.52916622  111.10700226    4.90999985    2.59999990
   14.53194427  113.20500183    4.90999985    2.61999989
   14.53500080  118.37100220    4.90999985    2.61999989
   14.53833389  119.72000122    4.90999985    2.61999989
   14.54166698  125.00499725    4.90999985    2.61999989
   14.54472256  106.89099884    4.90999985    2.59999990
   14.54805565  117.02999878    4.90999985    2.59999990
   14.55416679  117.02999878    4.90999985    2.61999989
   14.55833340  113.24800110    4.90999985    2.61999989
   14.56138897  108.85399628    4.90999985    2.59999990
   14.56250000  131.42100525    4.90999985    2.59999990
   14.56527805  125.17600250    4.90999985    2.59999990
   14.56833363  117.49199677    4.90999985    2.61999989
   14.57194424  103.75599670    4.90999985    2.64000010
   14.57527733  126.49400330    4.90999985    2.61999989
   14.57861137  109.97100067    4.90999985    2.61999989
   14.58194447  113.80300140    4.90999985    2.61999989
   14.58527756  106.20600128    4.90999985    2.61999989
   14.58861065  106.73799896    4.90999985    2.61999989
   14.59194374  117.63600159    4.90999985    2.61999989
   14.59694386  117.63600159    4.90999985    2.64000010
   14.60111141  114.29100037    4.90999985    2.64000010
   14.60500050  119.75299835    4.90999985    2.61999989
   14.60805607  108.00800323    4.90999985    2.61999989
   14.61138916  106.96199799    4.90999985    2.64000010
   14.61472225   -1.00000000    4.90999985    2.55999994
   14.61777782   -1.00000000    4.90999985    0.88000000
   14.62111092  104.35800171    4.90999985    1.33000004
   14.62444496  111.21900177    4.90999985    2.67000008
   14.62750053  110.19499969    4.90999985    2.64000010
   14.62916660  103.99500275    4.90999985    2.64000010
   14.63111115   99.66840363    4.90999985    2.64000010
   14.63416672  110.82199860    4.90999985    2.64000010
   14.63972187  110.82199860    4.90999985    2.64000010
   14.64388847  111.55500031    4.90999985    2.64000010
   14.64722252  107.07599640    4.90999985    2.64000010
   14.65027714  115.41799927    4.90999985    2.61999989
   14.65361118  111.38600159    4.90999985    2.64000010
   14.65694427  103.83699799    4.90999985    2.64000010
   14.65999985  104.94599915    4.90999985    2.61999989
   14.66249943  111.38700104    4.90999985    2.61999989
   14.66388893  107.37799835    4.90999985    2.61999989
   14.66694450  103.38700104    4.90999985    2.59999990
   14.67027855  129.37399292    4.90999985    2.50000000
   14.67361164  118.56400299    4.90999985    2.32999992
   14.67666721  110.36299896    4.90999985    2.25000000
   14.68277836  110.36299896    4.90999985    2.57999992
   14.68694496  113.13099670    4.90999985    2.46000004
   14.69000053  195.77499390    4.90999985    2.25000000
   14.69333363  115.06199646    4.90999985    2.23000002
   14.69583321  109.87500000    4.90999985    2.42000008
   14.69694424  115.40399933    4.90999985    2.44000006
   14.70027733  109.31600189    4.90999985    2.64000010
   14.70361137  107.69000244    4.90999985    2.64000010
   14.70666695  107.58599854    4.90999985    2.55999994
   14.71000004  134.17999268    4.90999985    2.50000000
   14.71333313  111.73999786    4.90999985    2.48000002
   14.71638870  101.90899658    4.90999985    2.61999989
   14.71972179  108.71399689    4.90999985    2.64000010
   14.72555542  108.71399689    4.90999985    2.59999990
   14.72972202  120.67500305    4.90999985    2.53999996
   14.73305511  105.75499725    4.90999985    2.59999990
   14.73638916  110.07399750    4.90999985    2.59999990
   14.73944473  117.12699890    4.90999985    2.59999990
   14.74277782  110.19699860    4.90999985    2.64000010
   14.74583340  103.33200073    4.90999985    2.61999989
   14.74916649  102.73500061    4.90999985    2.64000010
   14.75249958  112.69599915    4.90999985    2.64000010
   14.75583363   93.65959930    4.90999985    2.64000010
   14.75888920   91.64299774    4.90999985    2.61999989
   14.76222229  108.14399719    4.90999985    2.61999989
   14.76277733  119.17700195    4.90999985    2.61999989
   14.76833344  119.17700195    4.90999985    2.64000010
   14.77250004  105.59600067    4.90999985    2.64000010
   14.77583313  106.58200073    4.90999985    2.64000010
   14.77916622  115.07499695    4.90999985    2.61999989
   14.78222179  111.74900055    4.90999985    2.61999989
   14.78555584  110.87500000    4.90999985    2.64000010
   14.78888893  104.54499817    4.90999985    2.64000010
   14.79194450   95.87500000    4.90999985    2.64000010
   14.79527855  106.26100159    4.90999985    2.64000010
   14.79611111   96.78900146    4.90999985    2.61999989
   14.79888916  105.90000153    4.90999985    2.61999989
   14.80194473  100.84200287    4.90999985    2.64000010
   14.80527782  113.65699768    4.90999985    2.64000010
   14.81111145  113.65699768    4.90999985    2.66000009
   14.81527805   98.05819702    4.90999985    2.64000010
   14.81861115  111.40399933    4.90999985    2.64000010
   14.82194424   97.13140106    4.90999985    2.64000010
   14.82499981   98.81690216    4.90999985    2.64000010
   14.82833290  103.80200195    4.90999985    2.64000010
   14.82944393  105.88300323    4.90999985    2.64000010
   14.83194447  104.12400055    4.90999985    2.64000010
   14.83500004   88.31569672    4.90999985    2.64000010
   14.83833313  105.63999939    4.90999985    2.64000010
   14.84166622  110.57800293    4.90999985    2.61999989
   14.84472179  111.79100037    4.90999985    2.64000010
   14.84805489  116.49500275    4.90999985    2.64000010
   14.85416698  116.49500275    4.90999985    2.61999989
   14.85833359  111.62200165    4.90999985    2.61999989
   14.86138916   94.50810242    4.90999985    2.61999989
   14.86277771  109.39399719    4.90999985    2.64000010
   14.86500072  117.95300293    4.90999985    2.61999989
   14.86833382   97.41380310    4.90999985    2.61999989
   14.87138939  103.72000122    4.90999985    2.64000010
   14.87472248  115.44899750    4.90999985    2.61999989
   14.87805557   99.71869659    4.90999985    2.64000010
   14.88138866  110.28800201    4.90999985    2.61999989
   14.88444424  115.73699951    4.90999985    2.64000010
   14.88777733  119.77600098    4.90999985    2.64000010
