    HOUR (UT)   FLARE FACTOR    SKY TESTER    SUN TESTER
   11.48527813   -1.00000000   -1.00000000   -1.00000000
   11.52555561   92.65270233    0.00000000    0.00000000
   11.52888870   86.82260132    0.00000000    0.00000000
   11.53194427   93.50620270    0.00000000    0.00000000
   11.53527832   86.22750092    0.00000000    0.00000000
   11.53833389   89.88490295    0.00000000    0.00000000
   11.54166698   86.17819977    0.00000000    0.00000000
   11.54583359   86.17819977    0.00000000    0.00000000
   11.55000019   92.83450317    0.00000000    0.00000000
   11.55305576   90.62280273    0.00000000    0.00000000
   11.55666733   93.20529938    0.00000000    0.00000000
   11.55888939   95.91190338    0.00000000    0.00000000
   11.56027794   98.95960236    0.00000000    0.00000000
   11.56361103   89.89289856    0.00000000    0.00000000
   11.56694412   88.27870178    0.00000000    0.00000000
   11.56999969   88.33170319    0.00000000    0.00000000
   11.57333374   89.40769958    0.00000000    0.00000000
   11.57638836   90.93280029    0.00000000    0.00000000
   11.57972240   87.54640198    0.00000000    0.00000000
   11.58305550   86.10209656    0.00000000    0.00000000
   11.58861065   86.10209656    0.00000000    0.00000000
   11.59277725   94.76799774    0.00000000    0.00000000
   11.59611034   88.56400299    0.00000000    0.00000000
   11.59916592   93.20770264    0.00000000    0.00000000
   11.60249996   84.77069855    0.00000000    0.00000000
   11.60583401   82.83290100    0.00000000    0.00000000
   11.60888958   87.22889709    0.00000000    0.00000000
   11.61222267   87.30719757    0.00000000    0.00000000
   11.61555576   89.59839630    0.00000000    0.00000000
   11.61861134   94.41259766    0.00000000    0.00000000
   11.62194443   87.94550323    0.00000000    0.00000000
   11.62527752   94.59159851    0.00000000    0.00000000
   11.62583351   88.98880005    0.00000000    0.00000000
   11.63138866   88.98880005    0.00000000    0.00000000
   11.63555527   94.73220062    0.00000000    0.00000000
   11.63888836   89.53050232    0.00000000    0.00000000
   11.64222240   92.67060089    0.00000000    0.00000000
   11.64527798   89.40049744    0.00000000    0.00000000
   11.64861107   85.02700043    1.73000002    2.67000008
   11.65166664   84.54550171    1.73000002    2.67000008
   11.65499973   87.34380341    1.73000002    2.67000008
   11.65833282   89.42120361    1.73000002    2.67000008
   11.65916634   87.15360260    1.73000002    2.67000008
   11.66166592   93.18730164    1.73000002    2.67000008
   11.66499996   92.31279755    1.73000002    2.67000008
   11.66833401   89.41919708    1.73000002    2.67000008
   11.67444515   89.41919708    1.73000002    2.67000008
   11.67861176   89.18609619    1.73000002    2.67000008
   11.68166733   93.72429657    1.73000002    2.67000008
   11.68500042   95.61560059    1.73000002    2.67000008
   11.68805599   91.07360077    1.73000002    2.67000008
   11.69138908   95.55850220    1.73000002    2.67000008
   11.69250011   92.55840302    1.73000002    2.67000008
   11.69499969   86.53710175    1.73000002    2.67000008
   11.69833374   89.41929626    1.73000002    2.67000008
   11.70166683   93.69190216    1.73000002    2.67000008
   11.70472240   89.60810089    1.73000002    2.67000008
   11.70805550   90.81510162    1.73000002    2.67000008
   11.71166611   93.62560272    1.73000002    2.67000008
   11.71722221   93.62560272    1.73000002    2.67000008
   11.72138882   96.06250000    1.73000002    2.67000008
   11.72472191   90.03299713    1.73000002    2.67000008
   11.72583294   90.17440033    1.73000002    2.67000008
   11.72805500   93.73709869    1.73000002    2.67000008
   11.73138809   94.48370361    1.73000002    2.67000008
   11.73444462   88.74669647    1.73000002    2.67000008
   11.73777771   92.38220215    1.73000002    2.67000008
   11.74111176   95.38520050    1.73000002    2.67000008
   11.74416733   92.65850067    1.73000002    2.67000008
   11.74750042   88.21289825    1.73000002    2.67000008
   11.75083351   88.27480316    1.73000002    2.67000008
   11.75388908   93.73480225    1.73000002    2.67000008
   11.76000023   93.73480225    1.73000002    2.67000008
   11.76416683   88.51660156    1.73000002    2.67000008
   11.76749992   92.96330261    1.73000002    2.67000008
   11.77055550   91.18579865    1.73000002    2.67000008
   11.77388859   87.83550262    1.73000002    2.67000008
   11.77722168   88.85099792    1.73000002    2.67000008
   11.78027725   87.30580139    1.73000002    2.67000008
   11.78361130   85.39939880    1.73000002    2.67000008
   11.78666687   85.26770020    1.73000002    2.67000008
   11.79000092   89.77380371    1.73000002    2.67000008
   11.79250050   90.81279755    1.73000002    2.67000008
   11.79361153   85.27140045    1.73000002    2.67000008
   11.79694462   86.01020050    1.73000002    2.67000008
   11.80277824   86.01020050    1.73000002    2.67000008
   11.80694485   90.02890015    1.73000002    2.67000008
   11.81027794   86.57610321    1.73000002    2.67000008
   11.81333351   84.85669708    1.73000002    2.67000008
   11.81666660   95.28489685    1.73000002    2.67000008
   11.81999969   92.42030334    1.73000002    2.67000008
   11.82305527   88.92459869    1.73000002    2.67000008
   11.82583332   91.99490356    1.73000002    2.67000008
   11.82666683   85.77420044    1.73000002    2.67000008
   11.82999992   88.44609833    1.73000002    2.67000008
   11.83333302   90.89340210    1.73000002    2.67000008
   11.83638859   94.65409851    1.73000002    2.67000008
   11.83972168   93.78569794    1.73000002    2.67000008
   11.84583282   93.78569794    1.73000002    2.67000008
   11.85000038   88.63539886    1.73000002    2.67000008
   11.85305595   91.11830139    1.73000002    2.67000008
   11.85638905   88.83119965    1.73000002    2.67000008
   11.85916710   80.78009796    1.73000002    2.67000008
   11.86000061   87.09200287    1.73000002    2.67000008
   11.86333370   86.73829651    1.73000002    2.67000008
   11.86666679   83.49120331    1.73000002    2.67000008
   11.86972237   96.42310333    1.73000002    2.67000008
   11.87305546   90.05590057    1.73000002    2.67000008
   11.87611103   88.84110260    1.73000002    2.67000008
   11.87944412   85.08300018    1.73000002    2.67000008
   11.88277817   84.19219971    1.73000002    2.67000008
   11.88861084   84.19219971    1.73000002    2.67000008
   11.89277744   84.16040039    1.73000002    2.67000008
   11.89583302   86.10849762    1.73000002    2.67000008
   11.89916611   87.89579773    1.73000002    2.67000008
   11.90249920   97.59819794    1.73000002    2.67000008
   11.90583324   88.74579620    1.73000002    2.67000008
   11.90888882   90.09010315    1.73000002    2.67000008
   11.91222191   86.85399628    1.73000002    2.67000008
   11.91527748   88.42199707    1.73000002    2.67000008
   11.91861153   90.04730225    1.73000002    2.67000008
   11.92194462   84.36370087    1.73000002    2.67000008
   11.92500019   91.07420349    1.73000002    2.67000008
   11.92583370   81.85459900    1.73000002    2.67000008
   11.93138885   81.85459900    1.73000002    2.67000008
   11.93555546   90.58869934    1.73000002    2.67000008
   11.93888855   86.98940277    1.73000002    2.67000008
   11.94194412   83.48590088    1.73000002    2.67000008
   11.94527817   90.21610260    1.73000002    2.67000008
   11.94861126   96.24250031    1.73000002    2.67000008
   11.95166683   91.06369781    1.73000002    2.67000008
   11.95499992   84.48850250    1.73000002    2.67000008
   11.95805550   94.98850250    1.73000002    2.67000008
   11.95916653   89.47859955    1.73000002    2.67000008
   11.96166611   85.42870331    1.73000002    2.67000008
   11.96500015   87.77469635    1.73000002    2.67000008
   11.96833324   81.80339813    1.73000002    2.67000008
   11.97416592   81.80339813    1.73000002    2.67000008
   11.97833252   88.65200043    1.73000002    2.67000008
   11.98166656   88.59700012    1.73000002    2.67000008
   11.98472214   92.43049622    1.73000002    2.67000008
   11.98833370   87.08360291    1.73000002    2.67000008
   11.99138927   96.29930115    1.73000002    2.67000008
   11.99250031   89.57759857    1.73000002    2.67000008
   11.99499989   88.42060089    1.73000002    2.67000008
   11.99833393   93.65290070    1.73000002    2.67000008
   12.00166702   92.86519623    1.73000002    2.67000008
   12.00472260   97.89270020    1.73000002    2.67000008
   12.00805569   84.27700043    1.73000002    2.67000008
   12.01111126   89.32099915    1.73000002    2.67000008
   12.01722240   89.32099915    1.73000002    2.67000008
   12.02111053   97.59510040    1.73000002    2.67000008
   12.02444458   91.18830109    1.73000002    2.67000008
   12.02583313   90.50420380    1.73000002    2.67000008
   12.02805519   93.90689850    1.73000002    2.67000008
   12.03138828   90.99060059    1.73000002    2.67000008
   12.03472233   94.29039764    1.73000002    2.67000008
   12.03777790   95.03260040    1.73000002    2.67000008
   12.04111195   95.51059723    1.73000002    2.67000008
   12.04416752   80.85829926    1.73000002    2.67000008
   12.04750061   92.44429779    1.73000002    2.67000008
   12.05083370   92.33950043    1.73000002    2.67000008
   12.05388927   95.88890076    1.73000002    2.67000008
   12.06000042   95.88890076    1.73000002    2.67000008
   12.06416702   95.30979919    1.73000002    2.67000008
   12.06722260   91.42659760    1.73000002    2.67000008
   12.07055569   91.27420044    1.73000002    2.67000008
   12.07388878   84.43470001    1.73000002    2.67000008
   12.07694435   92.86720276    1.73000002    2.67000008
   12.08027744   82.74310303    1.73000002    2.67000008
   12.08333302   87.57089996    1.73000002    2.67000008
   12.08666611   85.72679901    1.73000002    2.67000008
   12.09000015   86.97319794    1.73000002    2.67000008
   12.09249973   91.41259766    1.73000002    2.67000008
   12.09333324   98.66989899    1.73000002    2.67000008
   12.09666634   96.38459778    1.73000002    2.67000008
   12.10277843   96.38459778    1.73000002    2.67000008
   12.10694504   96.55059814    1.73000002    2.67000008
   12.11027813  103.26799774    1.73000002    2.67000008
   12.11333370   97.51740265    1.73000002    2.67000008
   12.11666679   93.37709808    1.73000002    2.67000008
   12.11999989   93.02619934    1.73000002    2.67000008
   12.12305546   96.93979645    1.73000002    2.67000008
   12.12583351   97.09629822    1.73000002    2.67000008
   12.12666702   95.22640228    1.73000002    2.67000008
   12.13000011   93.89859772    1.73000002    2.67000008
   12.13333321   96.02790070    1.73000002    2.67000008
   12.13638878   94.21170044    1.73000002    2.67000008
   12.13972187   95.65190125    1.73000002    2.67000008
   12.14555550   95.65190125    1.73000002    2.67000008
   12.14972210   89.92590332    1.73000002    2.67000008
   12.15305519   93.07189941    1.73000002    2.67000008
   12.15611076   98.34750366    1.73000002    2.67000008
   12.15916634   90.11789703    1.73000002    2.67000008
   12.15972137   89.29029846    1.73000002    2.67000008
   12.16305542   95.13700104    1.73000002    2.67000008
   12.16638851   92.06950378    1.73000002    2.67000008
   12.16944504   90.28910065    1.73000002    2.67000008
   12.17277813   89.14779663    1.73000002    2.67000008
   12.17611122   96.40709686    1.73000002    2.67000008
   12.17916679   98.97319794    1.73000002    2.67000008
   12.18249989   91.94869995    1.73000002    2.67000008
   12.18861103   91.94869995    1.73000002    2.67000008
   12.19250011   93.46549988    1.73000002    2.67000008
   12.19583321   99.06439972    1.73000002    2.67000008
   12.19916630   93.93560028    1.73000002    2.67000008
   12.20222187   96.65019989    1.73000002    2.67000008
   12.20555496   91.84429932    1.73000002    2.67000008
   12.20888901   99.74949646    1.73000002    2.67000008
   12.21194458  107.84300232    1.73000002    2.67000008
   12.21527767  102.62699890    1.73000002    2.67000008
   12.21861076  108.27200317    1.73000002    2.67000008
   12.22166634   96.48870087    1.73000002    2.67000008
   12.22499943  101.23799896    1.73000002    2.67000008
   12.22583294  100.56199646    1.73000002    2.67000008
   12.23166656  100.56199646    1.73000002    2.67000008
   12.23555565  102.97399902    1.73000002    2.67000008
   12.23888874   99.22019958    1.73000002    2.67000008
   12.24222279  100.54199982    1.73000002    2.67000008
   12.24527836  100.89600372    1.73000002    2.67000008
   12.24861145  100.16200256    1.73000002    2.67000008
   12.25194454  100.68499756    1.73000002    2.67000008
   12.25500011  102.77600098    1.73000002    2.67000008
   12.25833321   97.55860138    1.73000002    2.67000008
   12.25916672   98.91139984    1.73000002    2.67000008
   12.26194477  102.11699677    1.73000002    2.67000008
   12.26500034  105.86499786    1.73000002    2.67000008
   12.26833344  106.99199677    1.73000002    2.67000008
   12.27416611  106.99199677    1.73000002    2.67000008
   12.27833271  103.99800110    1.73000002    2.67000008
   12.28166676  100.96199799    1.73000002    2.67000008
   12.28472233  105.88200378    1.73000002    2.67000008
   12.28805637  103.11299896    1.73000002    2.67000008
   12.29138947  106.19999695    1.73000002    2.67000008
   12.29250050   99.32180023    1.73000002    2.67000008
   12.29500008   92.85399628    1.73000002    2.67000008
   12.29805565   99.97949982    1.73000002    2.67000008
   12.30138874  103.14499664    1.73000002    2.67000008
   12.30444431  109.08100128    1.73000002    2.67000008
   12.30777836   91.90180206    1.73000002    2.67000008
   12.31111145   99.27539825    1.73000002    2.67000008
   12.31694412   99.27539825    1.73000002    2.67000008
   12.32111073  102.13800049    1.73000002    2.67000008
   12.32444477   96.94270325    1.73000002    2.67000008
   12.32583332   96.86489868    1.73000002    2.67000008
   12.32805538   92.70359802    1.73000002    2.67000008
   12.33138847   89.75689697    1.73000002    2.67000008
   12.33472157   93.00620270    1.73000002    2.67000008
   12.33777714   95.72619629    1.73000002    2.67000008
   12.34111118  104.69000244    1.73000002    2.67000008
   12.34444427  100.47699738    1.73000002    2.67000008
   12.34749985  113.60500336    1.73000002    2.67000008
   12.35083389   99.29869843    1.73000002    2.67000008
   12.35388947  105.33699799    1.73000002    2.67000008
   12.36000061  105.33699799    1.73000002    2.67000008
   12.36388969  110.00199890    1.73000002    2.67000008
   12.36722279  105.67299652    1.73000002    2.67000008
   12.37055588   98.85469818    1.73000002    2.67000008
   12.37361145  103.47699738    1.73000002    2.67000008
   12.37694454  104.02400208    1.73000002    2.67000008
   12.38027763  100.64299774    1.73000002    2.67000008
   12.38361073   96.62550354    1.73000002    2.67000008
   12.38666630   96.93350220    1.73000002    2.67000008
   12.39000034  103.69999695    1.73000002    2.67000008
   12.39249992  103.09200287    1.73000002    2.67000008
   12.39361095   99.79389954    1.73000002    2.67000008
   12.39666653  103.40399933    1.73000002    2.67000008
   12.40277767  103.40399933    1.73000002    2.67000008
   12.40694427  111.01999664    1.73000002    2.67000008
   12.40999985  100.99099731    1.73000002    2.67000008
   12.41333294  106.63999939    1.73000002    2.67000008
   12.41666698  102.34899902    1.73000002    2.67000008
   12.41972256  103.86000061    1.73000002    2.67000008
   12.42305565  105.48500061    1.73000002    2.67000008
   12.42583370   99.01640320    1.73000002    2.67000008
   12.42666721   98.31539917    1.73000002    2.67000008
   12.42972279  100.09700012    1.73000002    2.67000008
   12.43305588   98.13030243    1.73000002    2.67000008
   12.43638897  103.46099854    1.73000002    2.67000008
   12.43944454  102.43699646    1.73000002    2.67000008
   12.44555569  102.43699646    1.73000002    2.67000008
   12.44972229  106.80300140    1.73000002    2.67000008
   12.45277786  103.59600067    1.73000002    2.67000008
   12.45611095  101.53700256    1.73000002    2.67000008
   12.45916653  105.37599945    1.73000002    2.67000008
   12.46000004  105.01100159    1.73000002    2.67000008
   12.46305561  101.36100006    1.73000002    2.67000008
   12.46638870  102.11900330    1.73000002    2.67000008
   12.46972179  105.88300323    1.73000002    2.67000008
   12.47277737  110.92900085    1.73000002    2.67000008
   12.47611046  105.04799652    1.73000002    2.67000008
   12.47916603  101.45200348    1.73000002    2.67000008
   12.48249912   98.62609863    1.73000002    2.67000008
   12.48833370   98.62609863    1.73000002    2.67000008
   12.49250031  109.50399780    1.73000002    2.67000008
   12.49583340  101.46900177    1.73000002    2.67000008
   12.49888897  107.17700195    1.73000002    2.67000008
   12.50222206  102.92400360    1.73000002    2.67000008
   12.50555515  111.48200226    1.73000002    2.67000008
   12.50861073  102.84600067    1.73000002    2.67000008
   12.51194477  107.49900055    1.73000002    2.67000008
   12.51500034   95.91819763    1.73000002    2.67000008
   12.51833344  103.33200073    1.73000002    2.67000008
   12.52166653  106.02300262    1.73000002    2.67000008
   12.52472210   99.37480164    1.73000002    2.67000008
   12.52583313  100.46399689    1.73000002    2.67000008
   12.54666710  100.46399689    1.73000002    2.67000008
   12.55055618  105.04100037    1.73000002    2.67000008
   12.55388927  106.77100372    1.73000002    2.67000008
   12.55722237  104.34400177    1.73000002    2.67000008
   12.55916691  100.06500244    1.73000002    2.67000008
   12.56083393   99.10330200    1.73000002    2.67000008
   12.56388950  108.76399994    1.73000002    2.67000008
   12.56722260  113.04499817    1.73000002    2.67000008
   12.57027817  107.13400269    1.73000002    2.67000008
   12.57361126  112.32900238    1.73000002    2.67000008
   12.57694435  109.45400238    1.73000002    2.67000008
   12.57999992  105.63500214    1.73000002    2.67000008
   12.58333302  111.87400055    1.73000002    2.67000008
   12.58916664  111.87400055    1.73000002    2.67000008
   12.59333324  104.44300079    1.73000002    2.67000008
   12.59666634  109.55100250    1.73000002    2.67000008
   12.60000038   97.46610260    1.73000002    2.67000008
   12.60305595  107.48699951    1.73000002    2.67000008
   12.60638905  111.62200165    1.73000002    2.67000008
   12.60944462  110.02799988    1.73000002    2.67000008
   12.61277771  107.86299896    1.73000002    2.67000008
   12.61611176  114.93099976    1.73000002    2.67000008
   12.61916637  106.37400055    1.73000002    2.67000008
   12.62250042  107.35399628    1.73000002    2.67000008
   12.62583351  106.58899689    1.73000002    2.67000008
   12.62638855  110.42700195    1.73000002    2.67000008
   12.63222218  110.42700195    1.73000002    2.67000008
   12.63638878  111.35500336    1.73000002    2.67000008
   12.63944435  105.70800018    1.73000002    2.67000008
   12.64277744  118.04399872    1.73000002    2.67000008
   12.64583302  104.94699860    1.73000002    2.67000008
   12.64916611  118.43000031    1.73000002    2.67000008
   12.65249920  113.67400360    1.73000002    2.67000008
   12.65555477  121.01200104    1.73000002    2.67000008
   12.65888882  101.69499969    1.73000002    2.67000008
   12.65972137  109.25000000    1.73000002    2.67000008
   12.66249943  110.52899933    1.73000002    2.67000008
