    HOUR (UT)   FLARE FACTOR    SKY TESTER    SUN TESTER
   11.91972256   -1.00000000   -1.00000000   -1.00000000
   14.08388901  132.29400635    4.90999985    2.61999989
   14.08722210  132.87800598    4.90999985    2.61999989
   14.09055519  132.22300720    4.90999985    2.61999989
   14.09361076  125.03500366    4.90999985    2.61999989
   14.09694386  143.72500610    4.90999985    2.61999989
   14.10000038  127.43699646    4.90999985    2.61999989
   14.10416698  127.43699646    4.90999985    2.61999989
   14.10833359  129.18099976    4.90999985    2.64000010
   14.11166668  126.08499908    4.90999985    2.61999989
   14.11472225  130.91799927    4.90999985    2.61999989
   14.11722279  128.44500732    4.90999985    2.61999989
   14.11833382  133.24899292    4.90999985    2.64000010
   14.12166691  129.48399353    4.90999985    2.64000010
   14.12472248  135.86199951    4.90999985    2.64000010
   14.12805557  134.20199585    4.90999985    2.64000010
   14.13111115  133.55099487    4.90999985    2.64000010
   14.13444424  131.19999695    4.90999985    2.64000010
   14.13749981  125.65000153    4.90999985    2.64000010
   14.14083290  127.68699646    4.90999985    2.61999989
   14.14722252  127.68699646    4.90999985    2.64000010
   14.15111065  129.37199402    4.90999985    2.64000010
   14.15444374  133.18299866    4.90999985    2.64000010
   14.15777779  141.74499512    4.90999985    2.64000010
   14.16083336  134.72300720    4.90999985    2.64000010
   14.16416645  130.44999695    4.90999985    2.64000010
   14.16722298  125.51899719    4.90999985    2.64000010
   14.17055607  134.38499451    4.90999985    2.64000010
   14.17361164  136.48699951    4.90999985    2.66000009
   14.17694473  148.59599304    4.90999985    2.66000009
   14.18027782  137.55999756    4.90999985    2.64000010
   14.18333340  130.14199829    4.90999985    2.64000010
   14.18388939  131.29699707    4.90999985    2.64000010
   14.19000053  131.29699707    4.90999985    2.64000010
   14.19416714  129.24499512    4.90999985    2.64000010
   14.19722271  123.22399902    4.90999985    2.66000009
   14.20055580  138.67300415    4.90999985    2.61999989
   14.20361137  132.75700378    4.90999985    2.64000010
   14.20694447  132.28599548    4.90999985    2.64000010
   14.21027756  126.22599792    4.90999985    2.64000010
   14.21333313  136.62100220    4.90999985    2.64000010
   14.21666622  141.61799622    4.90999985    2.64000010
   14.21722221  146.28300476    4.90999985    2.66000009
   14.22027779  137.89399719    4.90999985    2.64000010
   14.22361088  138.30499268    4.90999985    2.61999989
   14.22666645  132.44599915    4.90999985    2.66000009
   14.23277760  132.44599915    4.90999985    2.64000010
   14.23694515  126.66600037    4.90999985    2.64000010
   14.24000072  136.97700500    4.90999985    2.64000010
   14.24333382  131.19299316    4.90999985    2.61999989
   14.24666691  130.22700500    4.90999985    2.64000010
   14.24972248  132.25100708    4.90999985    2.64000010
   14.25055599  143.94700623    4.90999985    2.64000010
   14.25333309  140.56399536    4.90999985    2.66000009
   14.25666714  123.59300232    4.90999985    2.66000009
   14.25972176  129.52499390    4.90999985    2.64000010
   14.26305580  138.91499329    4.90999985    2.64000010
   14.26611137  135.60299683    4.90999985    2.64000010
   14.26944447  132.75399780    4.90999985    2.64000010
   14.27555561  132.75399780    4.90999985    2.61999989
   14.27972221  136.69400024    4.90999985    2.64000010
   14.28305531  129.31300354    4.90999985    2.66000009
   14.28388977  130.44999695    4.90999985    2.66000009
   14.28666687  130.25300598    4.90999985    2.66000009
   14.29000092  136.96200562    4.90999985    2.64000010
   14.29305553  132.34399414    4.90999985    2.66000009
   14.29638958  146.20100403    4.90999985    2.64000010
   14.29944515  138.43299866    4.90999985    2.64000010
   14.30277824  138.42799377    4.90999985    2.66000009
   14.30611134  143.36099243    4.90999985    2.66000009
   14.30916691  132.89100647    4.90999985    2.64000010
   14.31250000  130.24000549    4.90999985    2.66000009
   14.31861115  130.24000549    4.90999985    2.64000010
   14.32250023  130.40899658    4.90999985    2.64000010
   14.32583332  123.88099670    4.90999985    2.64000010
   14.32916641  120.94200134    4.90999985    2.64000010
   14.33222198  128.46899414    4.90999985    2.64000010
   14.33555508  130.74800110    4.90999985    2.64000010
   14.33861065  132.07400513    4.90999985    2.64000010
   14.34194374  123.07800293    4.90999985    2.66000009
   14.34499931  133.89700317    4.90999985    2.64000010
   14.34833336  145.48300171    4.90999985    2.66000009
   14.35055637  132.62199402    4.90999985    2.66000009
   14.35194492  139.90100098    4.90999985    2.66000009
   14.35527802  134.40100098    4.90999985    2.64000010
   14.36138916  134.40100098    4.90999985    2.64000010
   14.36555576  123.71399689    4.90999985    2.64000010
   14.36861134  122.26499939    4.90999985    2.66000009
   14.37194443  126.91200256    4.90999985    2.66000009
   14.37527752  126.74800110    4.90999985    2.66000009
   14.37833309  133.35200500    4.90999985    2.66000009
   14.38166714  120.93900299    4.90999985    2.66000009
   14.38388920  112.66699982    4.90999985    2.66000009
   14.38527775  134.68200684    4.90999985    2.66000009
   14.38861084  131.31199646    4.90999985    2.66000009
   14.39166641  118.83699799    4.90999985    2.66000009
   14.39499950  129.24099731    4.90999985    2.66000009
   14.39805508  126.13899994    4.90999985    2.66000009
   14.40416622  126.13899994    4.90999985    2.66000009
   14.40833282  124.55300140    4.90999985    2.66000009
   14.41166592  135.18899536    4.90999985    2.66000009
   14.41472149  119.75499725    4.90999985    2.64000010
   14.41722298  132.93800354    4.90999985    2.66000009
   14.41833401  126.90499878    4.90999985    2.66000009
   14.42166710  122.21199799    4.90999985    2.66000009
   14.42472267  129.26699829    4.90999985    2.64000010
   14.42805576  111.77400208    4.90999985    2.64000010
   14.43111134  132.23199463    4.90999985    2.66000009
   14.43444443  123.73400116    4.90999985    2.64000010
   14.43777752  126.72899628    4.90999985    2.64000010
   14.44083309  129.18299866    4.90999985    2.64000010
   14.44694424  129.18299866    4.90999985    2.66000009
   14.45111084  122.69799805    4.90999985    2.66000009
   14.45444393  126.90499878    4.90999985    2.66000009
   14.45749950  125.09300232    4.90999985    2.64000010
   14.46083355  126.24099731    4.90999985    2.66000009
   14.46416664  126.66400146    4.90999985    2.66000009
   14.46722221  128.72500610    4.90999985    2.64000010
   14.47055531  121.23999786    4.90999985    2.66000009
   14.47361088  129.02000427    4.90999985    2.66000009
   14.47694397  127.14800262    4.90999985    2.64000010
   14.47999954  128.17500305    4.90999985    2.67000008
   14.48333359  123.55500031    4.90999985    2.66000009
   14.48388958  122.80899811    4.90999985    2.66000009
   14.49000072  122.80899811    4.90999985    2.66000009
   14.49388885  117.51399994    4.90999985    2.66000009
   14.49722290  124.93699646    4.90999985    2.66000009
   14.50055599  123.14099884    4.90999985    2.64000010
   14.50361156  118.07499695    4.90999985    2.64000010
   14.50694466  120.69699860    4.90999985    2.66000009
   14.51000023  121.22799683    4.90999985    2.66000009
   14.51333332  113.27300262    4.90999985    2.66000009
   14.51666641  116.40499878    4.90999985    2.66000009
   14.51749992  121.73100281    4.90999985    2.64000010
   14.52027798  118.28700256    4.90999985    2.66000009
   14.52361107  120.84899902    4.90999985    2.64000010
   14.52666664  122.04499817    4.90999985    2.64000010
   14.53277779  122.04499817    4.90999985    2.66000009
   14.53694534  126.70600128    4.90999985    2.66000009
   14.54000092  128.27799988    4.90999985    2.66000009
   14.54333401  131.86099243    4.90999985    2.66000009
   14.54638958  120.09999847    4.90999985    2.66000009
   14.54972267  133.25500488    4.90999985    2.66000009
   14.55083370  131.93699646    4.90999985    2.67000008
   14.55333328  136.16700745    4.90999985    2.67000008
   14.55666733  130.55700684    4.90999985    2.67000008
   14.55972195  130.25799561    4.90999985    2.67000008
   14.56305599  138.32699585    4.90999985    2.67000008
   14.56611156  128.42700195    4.90999985    2.66000009
   14.56944466  133.31100464    4.90999985    2.66000009
   14.57555580  133.31100464    4.90999985    2.66000009
   14.57972240  109.83899689    4.90999985    2.66000009
   14.58305550  124.35700226    4.90999985    2.66000009
   14.58416653  124.20500183    4.90999985    2.66000009
   14.58638859  131.61500549    4.90999985    2.67000008
   14.58972168  126.10900116    4.90999985    2.67000008
   14.59277725  117.55999756    4.90999985    2.64000010
   14.59611034  130.60699463    4.90999985    2.61999989
   14.59916592  118.44699860    4.90999985    2.61999989
   14.60249996  123.66100311    4.90999985    2.64000010
   14.60583401  129.63400269    4.90999985    2.66000009
   14.60888958  110.51799774    4.90999985    2.64000010
   14.61222267  120.72899628    4.90999985    2.66000009
   14.61833382  120.72899628    4.90999985    2.61999989
   14.62250042  110.87400055    4.90999985    2.59999990
   14.62583351  112.13800049    4.90999985    2.61999989
   14.62916660  115.47399902    4.90999985    2.64000010
   14.63222218  114.60900116    4.90999985    2.66000009
   14.63555527  120.05899811    4.90999985    2.66000009
   14.63861084  114.44300079    4.90999985    2.66000009
   14.64194393  112.82199860    4.90999985    2.66000009
   14.64499950  118.63400269    4.90999985    2.66000009
   14.64833355  123.93000031    4.90999985    2.64000010
   14.65083313  141.88999939    4.90999985    2.59999990
   14.65194416  122.63800049    4.90999985    2.61999989
   14.65527725  125.30000305    4.90999985    2.64000010
   14.66138840  125.30000305    4.90999985    2.64000010
   14.66527748  139.30099487    4.90999985    2.59999990
   14.66861153  118.95400238    4.90999985    2.64000010
   14.67194462  125.18599701    4.90999985    2.61999989
   14.67500019  137.93600464    4.90999985    2.64000010
   14.67833328  134.23100281    4.90999985    2.61999989
   14.68138885  134.43499756    4.90999985    2.66000009
   14.68416691  131.49800110    4.90999985    2.67000008
   14.68500042  127.24099731    4.90999985    2.67000008
   14.68833351  135.08999634    4.90999985    2.67000008
   14.69138908  129.64300537    4.90999985    2.66000009
   14.69472218  120.19000244    4.90999985    2.66000009
   14.69805527  130.85400391    4.90999985    2.67000008
   14.70416641  130.85400391    4.90999985    2.67000008
   14.70833302  121.48200226    4.90999985    2.66000009
   14.71138859  123.38099670    4.90999985    2.67000008
   14.71472168  130.71499634    4.90999985    2.67000008
   14.71749973  121.88899994    4.90999985    2.66000009
   14.71833324  124.95899963    4.90999985    2.66000009
   14.72166634  116.95400238    4.90999985    2.66000009
   14.72472191  119.81400299    4.90999985    2.67000008
   14.72805500  124.33499908    4.90999985    2.66000009
   14.73138809  121.85500336    4.90999985    2.66000009
   14.73444462  117.25199890    4.90999985    2.66000009
   14.73777771  122.42700195    4.90999985    2.67000008
   14.74083328  121.34600067    4.90999985    2.66000009
   14.74694443  121.34600067    4.90999985    2.67000008
   14.75111103  121.80300140    4.90999985    2.67000008
   14.75444412  128.87600708    4.90999985    2.67000008
   14.75749969  130.91600037    4.90999985    2.66000009
   14.76083374  134.84599304    4.90999985    2.67000008
   14.76388931  120.81400299    4.90999985    2.67000008
   14.76722240  117.33000183    4.90999985    2.66000009
   14.77027798  116.79599762    4.90999985    2.67000008
   14.77361107  124.84100342    4.90999985    2.64000010
   14.77694416  121.17700195    4.90999985    2.66000009
   14.77999973  123.11900330    4.90999985    2.67000008
   14.78333378  111.91600037    4.90999985    2.67000008
   14.78416729  129.49600220    4.90999985    2.67000008
   14.78972244  129.49600220    4.90999985    2.67000008
   14.79388905  116.63200378    4.90999985    2.67000008
   14.79722309  119.91400146    4.90999985    2.67000008
   14.80027771  123.62400055    4.90999985    2.67000008
   14.80361176  120.00800323    4.90999985    2.66000009
   14.80694485  122.75199890    4.90999985    2.67000008
   14.81000042  115.94000244    4.90999985    2.67000008
   14.81333351  115.43099976    4.90999985    2.67000008
   14.81638908  112.89700317    4.90999985    2.67000008
   14.81750011  117.34400177    4.90999985    2.67000008
   14.81999969  120.16999817    4.90999985    2.67000008
   14.82333374  126.65799713    4.90999985    2.67000008
   14.82638836  119.44799805    4.90999985    2.67000008
   14.83277798  119.44799805    4.90999985    2.67000008
   14.83694458  115.43000031    4.90999985    2.67000008
   14.84000015  129.24099731    4.90999985    2.67000008
   14.84333324  128.06599426    4.90999985    2.67000008
   14.84638882  116.80100250    4.90999985    2.69000006
   14.84972191  123.88999939    4.90999985    2.67000008
   14.85083389  124.15399933    4.90999985    2.67000008
   14.85333347  122.19300079    4.90999985    2.67000008
   14.85666752  115.75000000    4.90999985    2.67000008
   14.85972214  118.53600311    4.90999985    2.67000008
   14.86305618  125.39499664    4.90999985    2.67000008
   14.86638927  122.28299713    4.90999985    2.67000008
   14.86944485  120.14399719    4.90999985    2.69000006
   14.87555599  120.14399719    4.90999985    2.67000008
   14.87972260  116.03099823    4.90999985    2.67000008
   14.88277817  111.03099823    4.90999985    2.67000008
   14.88416672  112.18599701    4.90999985    2.69000006
   14.88638878  124.01799774    4.90999985    2.67000008
   14.88972187  117.75399780    4.90999985    2.67000008
   14.89277744  117.36199951    4.90999985    2.67000008
   14.89611053  117.69200134    4.90999985    2.67000008
   14.89944458  111.12100220    4.90999985    2.67000008
   14.90249920  118.27200317    4.90999985    2.69000006
   14.90583324  113.09600067    4.90999985    2.67000008
   14.90888882  123.38899994    4.90999985    2.66000009
   14.91222191  119.20899963    4.90999985    2.67000008
   14.91833401  119.20899963    4.90999985    2.66000009
   14.92250061  122.52400208    4.90999985    2.67000008
   14.92583370  134.65899658    4.90999985    2.67000008
   14.92888927  121.59200287    4.90999985    2.67000008
   14.93222237  126.48999786    4.90999985    2.67000008
   14.93527794  125.80899811    4.90999985    2.66000009
   14.93861103  128.73899841    4.90999985    2.67000008
   14.94194412  130.84300232    4.90999985    2.69000006
   14.94499969  121.07700348    4.90999985    2.66000009
   14.94833374  110.00000000    4.90999985    2.67000008
   14.95083332  115.34799957    4.90999985    2.67000008
   14.95166683  127.00199890    4.90999985    2.67000008
   14.95499992  115.12200165    4.90999985    2.67000008
   14.96111107  115.12200165    4.90999985    2.67000008
   14.96527767  115.85500336    4.90999985    2.67000008
   14.96861076  107.44899750    4.90999985    2.67000008
   14.97166634  111.62799835    4.90999985    2.67000008
   14.97499943  117.97000122    4.90999985    2.67000008
   14.97833252  116.91799927    4.90999985    2.67000008
   14.98138809  116.49600220    4.90999985    2.67000008
   14.98416710  113.91600037    4.90999985    2.67000008
   14.98500061  124.78399658    4.90999985    2.67000008
   14.98833370  123.02600098    4.90999985    2.67000008
   14.99166679  122.95800018    4.90999985    2.67000008
   14.99472237  124.20300293    4.90999985    2.69000006
   14.99805546  123.91500092    4.90999985    2.67000008
   15.00416660  123.91500092    4.90999985    2.67000008
   15.00833321  117.02300262    4.90999985    2.67000008
   15.01138878  119.93499756    4.90999985    2.69000006
   15.01472187  123.19799805    4.90999985    2.67000008
   15.01749992  127.83100128    4.90999985    2.67000008
   15.01805496  119.29299927    4.90999985    2.67000008
   15.02138901  121.82299805    4.90999985    2.71000004
   15.02472210  112.82299805    4.90999985    2.67000008
   15.02777767  118.38600159    4.90999985    2.69000006
   15.03111076  119.43800354    4.90999985    2.69000006
   15.03416729  134.00399780    4.90999985    2.67000008
   15.03750038  111.68599701    4.90999985    2.69000006
   15.04055595  123.51899719    4.90999985    2.67000008
   15.04694462  123.51899719    4.90999985    2.69000006
   15.05111122  117.03900146    4.90999985    2.67000008
   15.05416679  109.41000366    4.90999985    2.69000006
   15.05749989  116.18800354    4.90999985    2.67000008
   15.06083393  117.26599884    4.90999985    2.67000008
   15.06388950  124.32399750    4.90999985    2.67000008
   15.06722260  116.06400299    4.90999985    2.69000006
   15.07027817  116.30599976    4.90999985    2.69000006
   15.07361126  115.19100189    4.90999985    2.67000008
   15.07694435  111.47200012    4.90999985    2.67000008
   15.07999992  120.66300201    4.90999985    2.67000008
   15.08333302  109.62500000    4.90999985    2.67000008
   15.08416653  111.95700073    4.90999985    2.67000008
   15.10472298  111.95700073    4.90999985    2.67000008
   15.10888958  119.37400055    4.90999985    2.69000006
   15.11222267  114.84700012    4.90999985    2.69000006
   15.11527824  115.62899780    4.90999985    2.69000006
   15.11750031  121.17400360    4.90999985    2.69000006
   15.11888885  115.33300018    4.90999985    2.69000006
   15.12222195  113.62799835    4.90999985    2.69000006
   15.12555599  115.86100006    4.90999985    2.69000006
   15.12861156  116.07199860    4.90999985    2.69000006
   15.13194466  111.42199707    4.90999985    2.69000006
   15.13500023  124.37200165    4.90999985    2.69000006
   15.13833332  129.42900085    4.90999985    2.69000006
   15.14138889  119.83799744    4.90999985    2.69000006
   15.14750004  119.83799744    4.90999985    2.69000006
   15.15166664  112.83499908    4.90999985    2.67000008
   15.15499973  119.30699921    4.90999985    2.69000006
   15.15805531  116.46800232    4.90999985    2.69000006
   15.16138840  105.29499817    4.90999985    2.67000008
   15.16444397  112.33000183    4.90999985    2.69000006
   15.16777802  107.99500275    4.90999985    2.69000006
   15.17111111  106.07199860    4.90999985    2.69000006
   15.17416668  116.73200226    4.90999985    2.69000006
   15.17750072  104.37899780    4.90999985    2.69000006
   15.18055630  119.10099792    4.90999985    2.69000006
   15.18388939  111.66699982    4.90999985    2.69000006
   15.18444443  120.62300110    4.90999985    2.69000006
   15.19055557  120.62300110    4.90999985    2.69000006
   15.19444466  114.78700256    4.90999985    2.69000006
   15.19777775  112.39800262    4.90999985    2.69000006
   15.20083332  112.54299927    4.90999985    2.69000006
   15.20416641  115.30799866    4.90999985    2.69000006
   15.20749950  112.80699921    4.90999985    2.69000006
   15.21055508  125.50700378    4.90999985    2.69000006
   15.21388912  110.39800262    4.90999985    2.69000006
   15.21694374  111.52100372    4.90999985    2.67000008
   15.21777725  112.71499634    4.90999985    2.69000006
   15.22083282  115.04900360    4.90999985    2.69000006
