    HOUR (UT)   FLARE FACTOR    SKY TESTER    SUN TESTER
   11.16722298   -1.00000000   -1.00000000   -1.00000000
   11.22277737  179.39799500    4.90999985    2.53999996
   11.22861099  176.91900635    4.90999985    2.55999994
   11.23194408  173.52400208    4.90999985    2.53999996
   11.23527813  177.44599915    4.90999985    2.53999996
   11.23833370  177.83700562    4.90999985    2.53999996
   11.24166679  180.62100220    4.90999985    2.53999996
   11.24472237  180.94599915    4.90999985    2.53999996
   11.24805546  172.78799438    4.90999985    2.55999994
   11.25166702  180.21499634    4.90999985    2.55999994
   11.25500011  178.12899780    4.90999985    2.55999994
   11.25611115  180.88000488    4.90999985    2.53999996
   11.25861073  171.39999390    4.90999985    2.55999994
   11.26166630  164.05499268    4.90999985    2.55999994
   11.26500034  173.40699768    4.90999985    2.55999994
   11.26833344  168.17399597    4.90999985    2.55999994
   11.27138901  159.04899597    4.90999985    2.55999994
   11.27472210  174.92799377    4.90999985    2.53999996
   11.27805519  152.81700134    4.90999985    2.55999994
   11.28111076  167.71400452    4.90999985    2.55999994
   11.28444481  167.01100159    4.90999985    2.55999994
   11.28750038  173.92399597    4.90999985    2.55999994
   11.28944492  168.31300354    4.90999985    2.55999994
   11.29138947  172.58900452    4.90999985    2.57999992
   11.29444504  171.04499817    4.90999985    2.55999994
   11.29777813  161.14100647    4.90999985    2.55999994
   11.30111122  173.73300171    4.90999985    2.57999992
   11.30416679  164.23800659    4.90999985    2.57999992
   11.30749989  174.40600586    4.90999985    2.55999994
   11.31055546  175.17900085    4.90999985    2.57999992
   11.31388950  163.67500305    4.90999985    2.55999994
   11.31722260  180.44200134    4.90999985    2.57999992
   11.32027817  168.36599731    4.90999985    2.57999992
   11.32277775  177.46899414    4.90999985    2.57999992
   11.32416630  172.93499756    4.90999985    2.57999992
   11.32722187  173.04400635    4.90999985    2.57999992
   11.33055592  179.46099854    4.90999985    2.57999992
   11.33388901  168.01699829    4.90999985    2.59999990
   11.33694458  179.18899536    4.90999985    2.59999990
   11.34027767  175.57499695    4.90999985    2.59999990
   11.34361076  172.48800659    4.90999985    2.57999992
   11.34666634  183.15299988    4.90999985    2.57999992
   11.35000038  174.07000732    4.90999985    2.57999992
   11.35305595  180.65199280    4.90999985    2.57999992
   11.35611153  181.00900269    4.90999985    2.57999992
   11.35694504  173.07800293    4.90999985    2.57999992
   11.36000061  171.34700012    4.90999985    2.57999992
   11.36333370  172.86199951    4.90999985    2.57999992
   11.36666679  181.90899658    4.90999985    2.59999990
   11.36972237  173.36999512    4.90999985    2.59999990
   11.37305546  184.23800659    4.90999985    2.59999990
   11.37611103  174.59500122    4.90999985    2.59999990
   11.37944412  174.46299744    4.90999985    2.57999992
   11.38277817  170.95399475    4.90999985    2.57999992
   11.38583279  171.71099854    4.90999985    2.59999990
   11.38916683  169.97500610    4.90999985    2.59999990
   11.38972187  170.77499390    4.90999985    2.59999990
   11.39305496  175.32099915    4.90999985    2.59999990
   11.39611053  163.29699707    4.90999985    2.59999990
   11.39944458  172.07000732    4.90999985    2.57999992
   11.40249920  177.88000488    4.90999985    2.59999990
   11.40583324  172.29699707    4.90999985    2.59999990
   11.40916634  174.08900452    4.90999985    2.61999989
   11.41222191  173.15100098    4.90999985    2.61999989
   11.41555500  169.57600403    4.90999985    2.59999990
   11.41888905  173.38600159    4.90999985    2.59999990
   11.42194462  172.40899658    4.90999985    2.59999990
   11.42305565  171.39500427    4.90999985    2.59999990
   11.42583370  171.53199768    4.90999985    2.59999990
   11.42888927  169.90199280    4.90999985    2.61999989
   11.43222237  175.54200745    4.90999985    2.59999990
   11.43527794  171.65600586    4.90999985    2.61999989
   11.43861103  156.36000061    4.90999985    2.59999990
   11.44194412  168.64100647    4.90999985    2.59999990
   11.44499969  157.94099426    4.90999985    2.59999990
   11.44833374  171.71499634    4.90999985    2.59999990
   11.45166683  178.05099487    4.90999985    2.61999989
   11.45472240  175.54100037    4.90999985    2.59999990
   11.45638847  174.75999451    4.90999985    2.61999989
   11.45861053  178.27600098    4.90999985    2.61999989
   11.46166611  179.14199829    4.90999985    2.61999989
   11.46500015  169.16999817    4.90999985    2.59999990
   11.46805477  174.99699402    4.90999985    2.61999989
   11.47138882  177.01300049    4.90999985    2.61999989
   11.47472191  175.99299622    4.90999985    2.61999989
   11.47777748  174.93200684    4.90999985    2.61999989
   11.48111057  174.90800476    4.90999985    2.59999990
   11.48444462  188.92799377    4.90999985    2.61999989
   11.48750019  178.94400024    4.90999985    2.61999989
   11.48972225  176.10899353    4.90999985    2.61999989
   11.49138927  172.66499329    4.90999985    2.64000010
   11.49444485  179.26600647    4.90999985    2.64000010
   11.49777794  186.04400635    4.90999985    2.64000010
   11.50083351  185.94900513    4.90999985    2.64000010
   11.50416660  181.49299622    4.90999985    2.64000010
   11.50749969  170.18499756    4.90999985    2.61999989
   11.51055527  179.69999695    4.90999985    2.64000010
   11.51388931  171.46899414    4.90999985    2.64000010
   11.51694393  169.58399963    4.90999985    2.61999989
   11.52027798  170.60000610    4.90999985    2.61999989
   11.52305508  163.96400452    4.90999985    2.61999989
   11.52388859  178.45399475    4.90999985    2.61999989
   11.52722168  163.97200012    4.90999985    2.61999989
   11.53055573  185.99200439    4.90999985    2.64000010
   11.53361130  155.77400208    4.90999985    2.64000010
   11.53694534  176.69999695    4.90999985    2.66000009
   11.54027843  174.13099670    4.90999985    2.64000010
   11.54333401  188.18800354    4.90999985    2.64000010
   11.54666710  172.31900024    4.90999985    2.64000010
   11.54972267  157.45700073    4.90999985    2.64000010
   11.55305576  172.57000732    4.90999985    2.64000010
   11.55638885  172.65100098    4.90999985    2.61999989
   11.55666733  164.17300415    4.90999985    2.64000010
   11.56000042  165.40100098    4.90999985    2.64000010
   11.56333351  172.37300110    4.90999985    2.64000010
   11.56638908  160.72200012    4.90999985    2.64000010
   11.56972218  165.17100525    4.90999985    2.61999989
   11.57305527  164.96200562    4.90999985    2.64000010
   11.57611084  175.09899902    4.90999985    2.64000010
   11.57944393  165.64900208    4.90999985    2.64000010
   11.58249950  175.15100098    4.90999985    2.64000010
   11.58583260  162.37399292    4.90999985    2.66000009
   11.58916664  171.62500000    4.90999985    2.64000010
   11.58972168  167.41099548    4.90999985    2.64000010
   11.59249973  173.52400208    4.90999985    2.64000010
   11.59583282  162.49099731    4.90999985    2.66000009
   11.59916592  156.94200134    4.90999985    2.66000009
   11.60249996  159.75300598    4.90999985    2.64000010
   11.60555553  169.56100464    4.90999985    2.67000008
   11.60888958  167.13400269    4.90999985    2.66000009
   11.61222267  156.77299500    4.90999985    2.66000009
   11.61527824  165.42599487    4.90999985    2.64000010
   11.61861134  165.13999939    4.90999985    2.66000009
   11.62166691  160.49299622    4.90999985    2.66000009
   11.62305546  166.34100342    4.90999985    2.64000010
   11.62555599  162.33299255    4.90999985    2.64000010
   11.62861156  160.29400635    4.90999985    2.66000009
   11.63194466  162.97500610    4.90999985    2.66000009
   11.63500023  152.59399414    4.90999985    2.66000009
   11.63833332  164.86500549    4.90999985    2.66000009
   11.64166641  161.86099243    4.90999985    2.66000009
   11.64472198  150.45899963    4.90999985    2.66000009
   11.64805508  154.63000488    4.90999985    2.66000009
   11.65111065  160.62699890    4.90999985    2.66000009
   11.65444374  154.64300537    4.90999985    2.64000010
   11.65638828  154.10600281    4.90999985    2.64000010
   11.65833282  153.66099548    4.90999985    2.66000009
   11.66138840  147.85800171    4.90999985    2.67000008
   11.66472149  156.52499390    4.90999985    2.66000009
   11.66805553  163.13200378    4.90999985    2.66000009
   11.67111111  159.30099487    4.90999985    2.66000009
   11.67444515  162.05000305    4.90999985    2.66000009
   11.67750072  161.63600159    4.90999985    2.66000009
   11.68083382  155.42900085    4.90999985    2.66000009
   11.68416691  150.40400696    4.90999985    2.67000008
   11.68722248  157.11300659    4.90999985    2.67000008
   11.68972206  158.01800537    4.90999985    2.67000008
   11.69111156  156.95799255    4.90999985    2.66000009
   11.69416714  155.52000427    4.90999985    2.66000009
   11.69750023  143.59899902    4.90999985    2.67000008
   11.70055580  143.54499817    4.90999985    2.66000009
   11.70388889  158.99600220    4.90999985    2.66000009
   11.70722198  144.87300110    4.90999985    2.67000008
   11.71027756  157.76199341    4.90999985    2.67000008
   11.71361065  151.80900574    4.90999985    2.67000008
   11.71694374  152.73800659    4.90999985    2.66000009
   11.71999931  133.45399475    4.90999985    2.67000008
   11.72305489  157.86000061    4.90999985    2.67000008
   11.72388840  142.78100586    4.90999985    2.67000008
   11.72694397  154.30299377    4.90999985    2.67000008
   11.73027706  141.05000305    4.90999985    2.66000009
   11.73333359  146.18800354    4.90999985    2.69000006
   11.73666668  159.01699829    4.90999985    2.67000008
   11.74000072  150.68499756    4.90999985    2.66000009
   11.74305534  142.76800537    4.90999985    2.66000009
   11.74638939  149.28300476    4.90999985    2.67000008
   11.74972248  147.10600281    4.90999985    2.67000008
   11.75277805  155.67500305    4.90999985    2.67000008
   11.75611115  145.05000305    4.90999985    2.69000006
   11.75666714  143.35299683    4.90999985    2.69000006
   11.75972176  139.50700378    4.90999985    2.67000008
   11.76305580  144.07499695    4.90999985    2.69000006
   11.76638889  141.33599854    4.90999985    2.67000008
   11.76944447  146.55700684    4.90999985    2.69000006
   11.77277756  126.55400085    4.90999985    2.69000006
   11.77611065  152.13499451    4.90999985    2.67000008
   11.77916622  138.65800476    4.90999985    2.69000006
   11.78249931  145.82299805    4.90999985    2.69000006
   11.78555584  144.65699768    4.90999985    2.69000006
   11.78888893  134.93299866    4.90999985    2.67000008
   11.79000092  145.05099487    4.90999985    2.67000008
   11.79250050  152.88499451    4.90999985    2.71000004
   11.79583359  142.71099854    4.90999985    2.69000006
   11.79916668  154.68499756    4.90999985    2.69000006
   11.80222225  145.91200256    4.90999985    2.67000008
   11.80555534  152.32299805    4.90999985    2.69000006
   11.80888939  142.20100403    4.90999985    2.69000006
   11.81194496  148.99699402    4.90999985    2.69000006
   11.81527805  135.67999268    4.90999985    2.67000008
   11.81833363  131.05499268    4.90999985    2.67000008
   11.82166672  147.56599426    4.90999985    2.69000006
   11.82333374  139.24299622    4.90999985    2.69000006
   11.82527733  144.92799377    4.90999985    2.71000004
   11.82861137  134.34500122    4.90999985    2.69000006
   11.83194447  145.72099304    4.90999985    2.71000004
   11.83500004  131.78900146    4.90999985    2.69000006
   11.83833313  137.76499939    4.90999985    2.69000006
   11.84166622  142.64100647    4.90999985    2.71000004
   11.84472179  151.59199524    4.90999985    2.71000004
   11.84805489  143.26100159    4.90999985    2.69000006
   11.85111141  129.67799377    4.90999985    2.69000006
   11.85444450  142.69900513    4.90999985    2.69000006
   11.85666752  137.84700012    4.90999985    2.69000006
   11.85833359  135.78999329    4.90999985    2.69000006
   11.86138916  145.14900208    4.90999985    2.69000006
   11.86472225  138.64700317    4.90999985    2.71000004
   11.86777782  144.46000671    4.90999985    2.71000004
   11.87111092  138.43899536    4.90999985    2.71000004
   11.87444496  145.32499695    4.90999985    2.71000004
   11.87750053  146.76800537    4.90999985    2.71000004
   11.88083363  142.91700745    4.90999985    2.71000004
   11.88388920  141.93200684    4.90999985    2.71000004
   11.88722229  131.34599304    4.90999985    2.71000004
   11.89000034  145.52499390    4.90999985    2.71000004
   11.89083290  145.45599365    4.90999985    2.71000004
   11.89416695  142.27499390    4.90999985    2.73000002
   11.89750004  130.11700439    4.90999985    2.69000006
   11.90055561  151.68400574    4.90999985    2.71000004
   11.90388870  141.44900513    4.90999985    2.69000006
   11.90722179  152.47900391    4.90999985    2.71000004
   11.91027737  147.33900452    4.90999985    2.69000006
   11.91361046  138.17700195    4.90999985    2.71000004
   11.91666698  146.55099487    4.90999985    2.71000004
   11.92000008  138.97500610    4.90999985    2.71000004
   11.92333412  151.01499939    4.90999985    2.71000004
   11.92361164  147.62100220    4.90999985    2.71000004
   11.92694473  136.83399963    4.90999985    2.71000004
   11.93027782  150.22099304    4.90999985    2.71000004
   11.93333340  137.36000061    4.90999985    2.71000004
   11.93666649  144.79299927    4.90999985    2.71000004
   11.94000053  144.42799377    4.90999985    2.71000004
   11.94305515  126.15399933    4.90999985    2.71000004
   11.94638920  138.83399963    4.90999985    2.71000004
   11.94944477  149.09399414    4.90999985    2.71000004
   11.95277786  151.60899353    4.90999985    2.69000006
   11.95611095  156.73100281    4.90999985    2.73000002
   11.95666695  154.67999268    4.90999985    2.71000004
   11.95944405  150.44599915    4.90999985    2.69000006
   11.96277714  145.67999268    4.90999985    2.71000004
   11.96611118  148.70599365    4.90999985    2.73000002
   11.96916580  150.89700317    4.90999985    2.71000004
   11.97249985  148.90499878    4.90999985    2.73000002
   11.97583294  139.49499512    4.90999985    2.71000004
   11.97888851  143.28399658    4.90999985    2.73000002
   11.98222160  150.71600342    4.90999985    2.73000002
   11.98527813  146.05799866    4.90999985    2.69000006
   11.98861122  142.27099609    4.90999985    2.71000004
   11.99000072  136.56700134    4.90999985    2.71000004
   11.99250031  140.56199646    4.90999985    2.73000002
   11.99555588  133.20500183    4.90999985    2.69000006
   11.99888897  138.80999756    4.90999985    2.73000002
   12.00194454  138.48300171    4.90999985    2.71000004
   12.00527763  132.61900330    4.90999985    2.73000002
   12.00861073  140.01300049    4.90999985    2.73000002
   12.01166630  146.29800415    4.90999985    2.73000002
   12.01500034  148.10299683    4.90999985    2.75000000
   12.01833344  137.07499695    4.90999985    2.73000002
   12.02138901  139.58599854    4.90999985    2.71000004
   12.02333355  148.30000305    4.90999985    2.73000002
   12.02527714  142.18499756    4.90999985    2.73000002
   12.02833271  140.64700317    4.90999985    2.73000002
   12.03166676  140.76699829    4.90999985    2.73000002
   12.03472233  137.05700684    4.90999985    2.71000004
   12.03805637  138.24499512    4.90999985    2.71000004
   12.04138947  141.99099731    4.90999985    2.73000002
   12.04444504  139.94700623    4.90999985    2.75000000
   12.04777813  135.11399841    4.90999985    2.73000002
   12.05111122  139.00199890    4.90999985    2.75000000
   12.05416679  139.91299438    4.90999985    2.73000002
   12.05666733  135.20599365    4.90999985    2.73000002
   12.05805588  133.26300049    4.90999985    2.73000002
   12.06111145  146.72900391    4.90999985    2.71000004
   12.06444454  140.17700195    4.90999985    2.73000002
   12.06750011  140.78100586    4.90999985    2.73000002
   12.07083321  150.01699829    4.90999985    2.71000004
   12.07416630  139.92399597    4.90999985    2.73000002
   12.07722187  134.39100647    4.90999985    2.71000004
   12.08055592  140.47500610    4.90999985    2.71000004
   12.08388901  128.77499390    4.90999985    2.73000002
   12.08694458  139.26400757    4.90999985    2.73000002
   12.09000015  147.17799377    4.90999985    2.73000002
   12.09083271  150.22000122    4.90999985    2.73000002
   12.09388828  146.31100464    4.90999985    2.73000002
   12.09722233  149.06799316    4.90999985    2.73000002
   12.10027790  143.57899475    4.90999985    2.73000002
   12.10361195  139.30000305    4.90999985    2.75000000
   12.10694504  143.33500671    4.90999985    2.75000000
   12.11000061  149.63699341    4.90999985    2.75000000
   12.11333370  147.76300049    4.90999985    2.73000002
   12.11666679  147.60899353    4.90999985    2.73000002
   12.11972237  145.66999817    4.90999985    2.73000002
   12.12305546  149.05099487    4.90999985    2.73000002
   12.12361145  146.87899780    4.90999985    2.75000000
   12.12694454  148.95700073    4.90999985    2.75000000
   12.13000011  155.02200317    4.90999985    2.75000000
   12.13333321  144.57200623    4.90999985    2.75000000
   12.13638878  141.40699768    4.90999985    2.73000002
   12.13972187  150.84700012    4.90999985    2.75000000
   12.14305496  146.28500366    4.90999985    2.75000000
   12.14611053  151.77200317    4.90999985    2.75000000
   12.14944458  159.20500183    4.90999985    2.75000000
   12.15277767  156.27299500    4.90999985    2.75000000
   12.15583324  156.58700562    4.90999985    2.75000000
   12.15694427  169.83000183    4.90999985    2.73000002
   12.15972137  152.46600342    4.90999985    2.75000000
   12.16277695  155.19500732    4.90999985    2.75000000
   12.16611099  167.92700195    4.90999985    2.75000000
   12.16916656  168.96800232    4.90999985    2.75000000
   12.17250061  173.10899353    4.90999985    2.75000000
   12.17583370  165.97200012    4.90999985    2.75000000
   12.17888927  152.18200684    4.90999985    2.75000000
   12.18222237  167.22099304    4.90999985    2.75000000
   12.18555546  169.28100586    4.90999985    2.75000000
   12.18861103  165.70100403    4.90999985    2.75000000
   12.19027805  160.11599731    4.90999985    2.75000000
   12.19250011  174.53300476    4.90999985    2.75000000
   12.19555569  175.44799805    4.90999985    2.75000000
   12.19888878  178.02099609    4.90999985    2.75000000
   12.20194435  166.58099365    4.90999985    2.75000000
   12.20527744  174.16700745    4.90999985    2.76999998
   12.20861053  166.94200134    4.90999985    2.76999998
   12.21166611  171.70300293    4.90999985    2.75000000
   12.21500015  174.62600708    4.90999985    2.75000000
   12.21833324  174.09199524    4.90999985    2.75000000
   12.22138882  170.66200256    4.90999985    2.75000000
   12.23944473  177.78300476    4.90999985    2.75000000
   12.24138927  157.44400024    4.90999985    2.75000000
   12.24444485  166.46000671    4.90999985    2.75000000
   12.24777794  167.64300537    4.90999985    2.75000000
   12.25083351  173.85600281    4.90999985    2.75000000
   12.25416660  172.99899292    4.90999985    2.75000000
   12.25749969  173.03300476    4.90999985    2.75000000
   12.26055527  169.90800476    4.90999985    2.76999998
