    HOUR (UT)   FLARE FACTOR    SKY TESTER    SUN TESTER
    0.00305556   -1.00000000   -1.00000000   -1.00000000
    0.14972223   -1.00000000   -1.00000000   -1.00000000
   11.15499973   -1.00000000   -1.00000000   -1.00000000
   11.18083382  159.31700134    0.00000000    0.00000000
   11.18472195  120.69100189    0.00000000    0.00000000
   11.18861103   81.52829742    0.00000000    0.00000000
   11.19250011   83.31510162    0.00000000    0.00000000
   11.19638920  141.04200745    0.00000000    0.00000000
   11.20111084  141.04200745    0.00000000    0.00000000
   11.20527744   89.94570160    0.00000000    0.00000000
   11.20833302   76.81870270    0.00000000    0.00000000
   11.21166611   87.38639832    0.00000000    0.00000000
   11.21361065  107.08799744    0.00000000    0.00000000
   11.21527767  138.60499573    0.00000000    0.00000000
   11.21861076  184.95500183    0.00000000    0.00000000
   11.22194386  118.93099976    0.00000000    0.00000000
   11.22499943   92.97959900    0.00000000    0.00000000
   11.22833252   75.07440186    0.00000000    0.00000000
   11.23138809   98.00180054    0.00000000    0.00000000
   11.23472214  138.73599243    0.00000000    0.00000000
   11.23805618  152.15499878    0.00000000    0.00000000
   11.24333382  152.15499878    0.00000000    0.00000000
   11.24750042   86.22059631    0.00000000    0.00000000
   11.25055599   85.83390045    0.00000000    0.00000000
   11.25388908   84.91179657    0.00000000    0.00000000
   11.25722218   88.27850342    0.00000000    0.00000000
   11.26027775   88.20989990    0.00000000    0.00000000
   11.26361084   84.56759644    0.00000000    0.00000000
   11.26666641   88.29679871    0.00000000    0.00000000
   11.26999950   91.77790070    0.00000000    0.00000000
   11.27333355   85.51149750    0.00000000    0.00000000
   11.27638817   88.63259888    0.00000000    0.00000000
   11.27972221   89.42089844    0.00000000    0.00000000
   11.28027725   81.81420135    0.00000000    0.00000000
   11.28611183   81.81420135    0.00000000    0.00000000
   11.29027843   94.27500153    0.00000000    0.00000000
   11.29361153   88.79889679    0.00000000    0.00000000
   11.29666710  103.93399811    0.00000000    0.00000000
   11.30000019   90.12190247    0.00000000    0.00000000
   11.30305576  101.30999756    0.00000000    0.00000000
   11.30638885   84.62850189    0.00000000    0.00000000
   11.33916664   85.63330078    0.00000000    0.00000000
   11.34249973   85.45149994    0.00000000    0.00000000
   11.34555531   81.63539886    0.00000000    0.00000000
   11.34888840   82.26560211    0.00000000    0.00000000
   11.35194492  151.58900452    0.00000000    0.00000000
   11.35527802  147.55599976    0.00000000    0.00000000
   11.35944462  147.55599976    0.00000000    0.00000000
   11.36361122  151.59399414    0.00000000    0.00000000
   11.36666679   -1.00000000    0.00000000    0.00000000
   11.36999989  106.28700256    0.00000000    0.00000000
   11.37250042  165.08500671    0.00000000    0.00000000
   11.37361145  157.19299316    0.00000000    0.00000000
   11.37694454  144.47000122    0.00000000    0.00000000
   11.38000011  138.18499756    0.00000000    0.00000000
   11.38333321  153.98300171    0.00000000    0.00000000
   11.38666630  137.97300720    0.00000000    0.00000000
   11.38972187  140.72900391    0.00000000    0.00000000
   11.39305496  145.41999817    0.00000000    0.00000000
   11.39638901  137.15100098    0.00000000    0.00000000
   11.40222168  137.15100098    0.00000000    0.00000000
   11.40638828  136.18699646    0.00000000    0.00000000
   11.40972137  163.94599915    0.00000000    0.00000000
   11.41277695  141.79499817    0.00000000    0.00000000
   11.41611099  144.99400330    0.00000000    0.00000000
   11.41944504  144.23800659    0.00000000    0.00000000
   11.42250061  152.41700745    0.00000000    0.00000000
   11.42583370  143.75799561    0.00000000    0.00000000
   11.42888927  150.37100220    0.00000000    0.00000000
   11.43222237  145.38600159    0.00000000    0.00000000
   11.43555546  141.17500305    0.00000000    0.00000000
   11.43861103  142.73199463    0.00000000    0.00000000
   11.43916702  152.10499573    0.00000000    0.00000000
   11.44499969  152.10499573    0.00000000    0.00000000
   11.44916630  148.93099976    0.00000000    0.00000000
   11.45249939  146.27600098    0.00000000    0.00000000
   11.45583344  145.05999756    0.00000000    0.00000000
   11.45888901  152.37600708    0.00000000    0.00000000
   11.46222210  170.54899597    0.00000000    0.00000000
   11.46527767  149.81100464    0.00000000    0.00000000
   11.46861076  153.99200439    0.00000000    0.00000000
   11.47194386  153.58299255    0.00000000    0.00000000
   11.47249985  146.04699707    0.00000000    0.00000000
   11.47555542  147.28399658    0.00000000    0.00000000
   11.47861099  167.97000122    0.00000000    0.00000000
   11.48194408  154.17799377    0.00000000    0.00000000
   11.48805618  154.17799377    0.00000000    0.00000000
   11.49222279  165.97700500    0.00000000    0.00000000
   11.49527836  174.82000732    0.00000000    0.00000000
   11.49861145  148.30999756    0.00000000    0.00000000
   11.50166702  163.71200562    0.00000000    0.00000000
   11.50500011  160.98500061    0.00000000    0.00000000
   11.50583363  158.79200745    0.00000000    0.00000000
   11.50861073  167.07800293    0.00000000    0.00000000
   11.51166630  151.26499939    0.00000000    0.00000000
   11.51500034  158.58299255    0.00000000    0.00000000
   11.51833344  167.53100586    0.00000000    0.00000000
   11.52138901  188.18400574    0.00000000    0.00000000
   11.52472210  201.60899353    0.00000000    0.00000000
   11.53083324  201.60899353    0.00000000    0.00000000
   11.53500080  256.24700928    0.00000000    0.00000000
   11.53805637  222.16200256    0.00000000    0.00000000
   11.53916740  265.53799438    0.00000000    0.00000000
   11.54194450  251.32800293    0.00000000    0.00000000
   11.54527855  284.58898926    0.00000000    0.00000000
   11.54833412  220.52999878    0.00000000    0.00000000
   11.55166721  274.79400635    0.00000000    0.00000000
   11.55472279  226.05900574    0.00000000    0.00000000
   11.55805588  213.78300476    0.00000000    0.00000000
   11.56138897  266.97198486    0.00000000    0.00000000
   11.56472206  254.07699585    0.00000000    0.00000000
   11.56777763  231.43600464    0.00000000    0.00000000
   11.57361126  231.43600464    0.00000000    0.00000000
   11.57777786  230.92300415    0.00000000    0.00000000
   11.58111095  221.18699646    0.00000000    0.00000000
   11.58416653  193.09599304    0.00000000    0.00000000
   11.58749962  236.06700134    0.00000000    0.00000000
   11.59083271  205.69900513    0.00000000    0.00000000
   11.59388828  226.46600342    0.00000000    0.00000000
   11.59722233  204.46299744    0.00000000    0.00000000
   11.60027790  182.13999939    0.00000000    0.00000000
   11.60361195  209.89799500    0.00000000    0.00000000
   11.60583401  228.69799805    0.00000000    0.00000000
   11.60722256  229.54200745    0.00000000    0.00000000
   11.61055565  199.13499451    0.00000000    0.00000000
   11.61638927  199.13499451    0.00000000    0.00000000
   11.62055588  186.21800232    0.00000000    0.00000000
   11.62388897  181.05799866    0.00000000    0.00000000
   11.62722206  170.37899780    0.00000000    0.00000000
   11.63027763  173.90899658    0.00000000    0.00000000
   11.63361073  177.51100159    0.00000000    0.00000000
   11.63666630  180.79699707    0.00000000    0.00000000
   11.63916683  180.74699402    0.00000000    0.00000000
   11.64055538  177.75799561    0.00000000    0.00000000
   11.64388847  180.47599792    0.00000000    0.00000000
   11.64694405  161.49099731    0.00000000    0.00000000
   11.65027714  187.60899353    0.00000000    0.00000000
   11.65333271  183.94799805    0.00000000    0.00000000
   11.65944386  183.94799805    0.00000000    0.00000000
   11.66361046  177.27400208    0.00000000    0.00000000
   11.66666698  188.96800232    0.00000000    0.00000000
   11.67000008  165.44299316    0.00000000    0.00000000
   11.67250061  179.71200562    0.00000000    0.00000000
   11.67361164  170.19999695    0.00000000    0.00000000
   11.67694473  187.12500000    0.00000000    0.00000000
   11.68000031  172.49099731    0.00000000    0.00000000
   11.68333340  171.08399963    0.00000000    0.00000000
   11.68638897  181.70500183    0.00000000    0.00000000
   11.68972206  182.24299622    0.00000000    0.00000000
   11.69305515  179.55799866    0.00000000    0.00000000
   11.69611073  181.03700256    0.00000000    0.00000000
   11.70222187  181.03700256    0.00000000    0.00000000
   11.70638847  178.80799866    0.00000000    0.00000000
   11.70944405  181.27299500    0.00000000    0.00000000
   11.71277714  172.80799866    0.00000000    0.00000000
   11.71611118  162.24499512    0.00000000    0.00000000
   11.71916580  175.67300415    0.00000000    0.00000000
   11.72249985  182.10499573    0.00000000    0.00000000
   11.72583294  173.91600037    0.00000000    0.00000000
   11.72888851  181.53500366    0.00000000    0.00000000
   11.73222160  183.49899292    0.00000000    0.00000000
   11.73527813  168.16799927    0.00000000    0.00000000
   11.73861122  157.99400330    0.00000000    0.00000000
   11.73916721  163.61999512    0.00000000    0.00000000
   11.74499989  163.61999512    0.00000000    0.00000000
   11.74916649  168.23899841    0.00000000    0.00000000
   11.75249958  168.27999878    0.00000000    0.00000000
   11.75555515  163.18499756    0.00000000    0.00000000
   11.75888920  168.46000671    0.00000000    0.00000000
   11.76222229  166.52099609    0.00000000    0.00000000
   11.76527786  179.83799744    0.00000000    0.00000000
   11.76861095  164.52400208    0.00000000    0.00000000
   11.77166653  161.95700073    0.00000000    0.00000000
   11.77250004  159.04200745    0.00000000    0.00000000
   11.77527714  171.84500122    0.00000000    0.00000000
   11.77861118  175.93699646    0.00000000    0.00000000
   11.78166676  180.86399841    0.00000000    0.00000000
   11.78777790  180.86399841    0.00000000    0.00000000
   11.79194450  173.99800110    0.00000000    0.00000000
   11.79527855  171.88999939    0.00000000    0.00000000
   11.79861164  169.58900452    0.00000000    0.00000000
   11.80166721  155.73899841    0.00000000    0.00000000
   11.80500031  165.74299622    0.00000000    0.00000000
   11.80583382  172.77099609    0.00000000    0.00000000
   11.80861092  169.75199890    0.00000000    0.00000000
   11.81194496  158.44000244    0.00000000    0.00000000
   11.81500053  172.29499817    0.00000000    0.00000000
   11.81833363  164.53399658    0.00000000    0.00000000
   11.82166672  164.11999512    0.00000000    0.00000000
   11.82472229  158.78799438    0.00000000    0.00000000
   11.83083344  158.78799438    0.00000000    0.00000000
   11.83500004  169.72900391    4.90999985    2.67000008
   11.83888817  175.80000305    4.90999985    2.67000008
   11.83944416  164.65600586    4.90999985    2.67000008
   11.84277725  177.85000610    4.90999985    2.67000008
   11.84583282  163.44500732    4.90999985    2.67000008
   11.84916592  158.89399719    4.90999985    2.67000008
   11.85249996  174.45100403    4.90999985    2.67000008
   11.85555553  164.60499573    4.90999985    2.67000008
   11.85888958  164.64300537    4.90999985    2.67000008
   11.86194515  163.19700623    4.90999985    2.67000008
   11.86527824  175.94500732    4.90999985    2.67000008
   11.86861134  192.54800415    4.90999985    2.67000008
   11.87361145  192.54800415    4.90999985    2.67000008
   11.87777805  206.33799744    4.90999985    2.67000008
   11.88083363  194.71699524    4.90999985    2.67000008
   11.88416672  180.08000183    4.90999985    2.67000008
   11.88749981  177.10400391    4.90999985    2.67000008
   11.89055538  197.69999695    4.90999985    2.67000008
   11.89388847  172.97300720    4.90999985    2.67000008
   11.89722252  180.01400757    4.90999985    2.67000008
   11.90027714  168.28199768    4.90999985    2.67000008
   11.90361118  168.19999695    4.90999985    2.67000008
   11.90611076  164.93899536    4.90999985    2.67000008
   11.90749931  176.66499329    4.90999985    2.67000008
   11.91055489  167.79400635    4.90999985    2.67000008
   11.91638851  167.79400635    4.90999985    2.67000008
   11.92055607  154.39300537    4.90999985    2.67000008
   11.92388916  166.13000488    4.90999985    2.67000008
   11.92694473  174.04299927    4.90999985    2.67000008
   11.93027782  159.35600281    4.90999985    2.67000008
   11.93361092  160.04899597    4.90999985    2.67000008
   11.93666649  147.30900574    4.90999985    2.67000008
   11.93944454  153.77400208    4.90999985    2.67000008
   11.94055557  152.50500488    4.90999985    2.67000008
   11.94361115  156.79800415    4.90999985    2.67000008
   11.94694424  151.70899963    4.90999985    2.67000008
   11.95027733  158.77600098    4.90999985    2.67000008
   11.95333290  155.65800476    4.90999985    2.67000008
   11.95916653  155.65800476    4.90999985    2.67000008
   11.96333313  151.58399963    4.90999985    2.67000008
   11.96666622  154.13600159    4.90999985    2.67000008
   11.96999931  157.81599426    4.90999985    2.67000008
   11.97277737  151.60600281    4.90999985    2.67000008
   11.97361088  150.68899536    4.90999985    2.67000008
   11.97666645  161.64300537    4.90999985    2.67000008
   11.97999954  150.54499817    4.90999985    2.67000008
   11.98333359  152.67999268    4.90999985    2.67000008
   11.98638916  162.22900391    4.90999985    2.67000008
   11.98972225  157.67799377    4.90999985    2.67000008
   11.99305534  153.56100464    4.90999985    2.67000008
   11.99611092  152.24699402    4.90999985    2.67000008
   12.00222206  152.24699402    4.90999985    2.67000008
   12.00638866  150.91299438    4.90999985    2.67000008
   12.00944424  155.44999695    4.90999985    2.67000008
   12.01277733  145.83200073    4.90999985    2.67000008
   12.01583290  145.23399353    4.90999985    2.67000008
   12.01916599  148.97999573    4.90999985    2.67000008
   12.02250004  148.79100037    4.90999985    2.67000008
   12.02555561  152.64799500    4.90999985    2.67000008
   12.02888870  153.55400085    4.90999985    2.67000008
   12.03222179  147.13800049    4.90999985    2.67000008
   12.03527832  153.14100647    4.90999985    2.67000008
   12.03861141  154.67900085    4.90999985    2.67000008
   12.03944492  154.82600403    4.90999985    2.67000008
   12.04500008  154.82600403    4.90999985    2.67000008
   12.04916668  154.91999817    4.90999985    2.67000008
   12.05222225  157.92799377    4.90999985    2.67000008
   12.05555534  153.44999695    4.90999985    2.67000008
   12.05888939  156.41999817    4.90999985    2.67000008
   12.06194496  151.78799438    4.90999985    2.67000008
   12.06527805  147.31399536    4.90999985    2.67000008
   12.06861115  154.86500549    4.90999985    2.67000008
   12.07166672  164.18600464    4.90999985    2.67000008
   12.07277775  161.66999817    4.90999985    2.67000008
   12.07555580  158.44900513    4.90999985    2.67000008
   12.07861137  153.60800171    4.90999985    2.67000008
   12.08194447  155.73399353    4.90999985    2.67000008
   12.08777714  155.73399353    4.90999985    2.67000008
   12.09194374  156.53999329    4.90999985    2.67000008
   12.09527779  152.32600403    4.90999985    2.67000008
   12.09833336  155.39999390    4.90999985    2.67000008
   12.10166740  153.51800537    4.90999985    2.67000008
   12.10500050  139.01300049    4.90999985    2.67000008
   12.10611153  150.57099915    4.90999985    2.67000008
   12.10861111  141.61599731    4.90999985    2.67000008
   12.11166668  156.51400757    4.90999985    2.67000008
   12.11500072  146.10600281    4.90999985    2.67000008
   12.11833382  152.55799866    4.90999985    2.67000008
   12.12138939  160.41099548    4.90999985    2.67000008
   12.12472248  160.29899597    4.90999985    2.67000008
   12.13055611  160.29899597    4.90999985    2.67000008
   12.13472176  162.38299561    4.90999985    2.67000008
   12.13805580  144.62800598    4.90999985    2.67000008
   12.13944435  154.63800049    4.90999985    2.67000008
   12.14166641  153.21800232    4.90999985    2.67000008
   12.14472198  142.00599670    4.90999985    2.67000008
   12.14805508  139.26800537    4.90999985    2.67000008
   12.15138817  151.49000549    4.90999985    2.67000008
   12.15444374  143.15100098    4.90999985    2.67000008
   12.15777779  150.38999939    4.90999985    2.67000008
   12.16111088  145.62100220    4.90999985    2.67000008
   12.16416645  133.94599915    4.90999985    2.67000008
   12.16750050  151.84500122    4.90999985    2.67000008
   12.17361164  151.84500122    4.90999985    2.67000008
   12.17777824  148.36799622    4.90999985    2.67000008
   12.18083382  142.43400574    4.90999985    2.67000008
   12.18416691  152.22700500    4.90999985    2.67000008
   12.18722248  144.50100708    4.90999985    2.67000008
   12.19055557  144.58500671    4.90999985    2.67000008
   12.19388866  137.24099731    4.90999985    2.67000008
   12.19694424  138.69099426    4.90999985    2.67000008
   12.20027733  143.96400452    4.90999985    2.67000008
   12.20361137  146.85000610    4.90999985    2.67000008
   12.20611095  146.12500000    4.90999985    2.67000008
   12.20722198  131.61199951    4.90999985    2.67000008
   12.21055508  136.82099915    4.90999985    2.67000008
   12.21638870  136.82099915    4.90999985    2.67000008
   12.22055531  143.43499756    4.90999985    2.67000008
   12.22361088  145.72700500    4.90999985    2.67000008
   12.22694397  136.72900391    4.90999985    2.67000008
   12.23027706  142.36399841    4.90999985    2.67000008
   12.23333359  144.46600342    4.90999985    2.67000008
   12.23666668  144.53199768    4.90999985    2.67000008
   12.23944473  145.33900452    4.90999985    2.67000008
   12.24027824  137.53700256    4.90999985    2.67000008
   12.24333382  139.75199890    4.90999985    2.67000008
   12.24666691  138.36399841    4.90999985    2.67000008
   12.25000000  145.06799316    4.90999985    2.67000008
   12.25305557  149.17199707    4.90999985    2.67000008
   12.25916672  149.17199707    4.90999985    2.67000008
   12.26333332  153.38000488    4.90999985    2.67000008
   12.26666641  173.67100525    4.90999985    2.67000008
   12.26972198  157.51899719    4.90999985    2.67000008
   12.27277756  148.86500549    4.90999985    2.67000008
   12.27361107  166.53100586    4.90999985    2.67000008
   12.27694416  149.57600403    4.90999985    2.67000008
   12.27999973  143.65299988    4.90999985    2.67000008
   12.28333378  150.49499512    4.90999985    2.67000008
   12.28638935  157.92300415    4.90999985    2.67000008
   12.28972244  161.76199341    4.90999985    2.67000008
   12.29305553  161.88200378    4.90999985    2.67000008
   12.29611111  155.65800476    4.90999985    2.67000008
   12.30194473  155.65800476    4.90999985    2.67000008
   12.30611134  154.90600586    4.90999985    2.67000008
   12.30944443  163.72799683    4.90999985    2.67000008
   12.31277752  156.28500366    4.90999985    2.67000008
   12.31583309  168.78700256    4.90999985    2.67000008
   12.31916618  152.34399414    4.90999985    2.67000008
   12.32250023  163.23199463    4.90999985    2.67000008
   12.32555580  164.86999512    4.90999985    2.67000008
   12.32888889  180.16000366    4.90999985    2.67000008
   12.33222198  186.96499634    4.90999985    2.67000008
