    HOUR (UT)   FLARE FACTOR    SKY TESTER    SUN TESTER
   11.19472218   -1.00000000   -1.00000000   -1.00000000
   11.27777767   -1.00000000    0.00000000    0.00000000
   11.28083324   -1.00000000    0.00000000    0.00000000
   11.28416729   -1.00000000    0.00000000    0.00000000
   11.28750038   -1.00000000    0.00000000    0.00000000
   11.29055595   -1.00000000    0.00000000    0.00000000
   11.29888916   -1.00000000    0.00000000    0.00000000
   11.30194473   -1.00000000    0.00000000    0.00000000
   11.30527782   -1.00000000    0.00000000    0.00000000
   11.30888939   -1.00000000    0.00000000    0.00000000
   11.31194496   -1.00000000    0.00000000    0.00000000
   11.31527805   -1.00000000    0.00000000    0.00000000
   12.37555599  130.86300659    0.00000000    0.00000000
   12.37888908  139.14900208    0.00000000    0.00000000
   12.38194466  130.17900085    0.00000000    0.00000000
   12.38527775  122.09799957    0.00000000    0.00000000
   12.38861084  135.25900269    0.00000000    0.00000000
   12.39166641  124.75700378    0.00000000    0.00000000
   12.39583302  124.75700378    0.00000000    0.00000000
   12.39999962  128.22999573    0.79000002    0.05000000
   12.40333271  122.22899628    0.79000002    0.05000000
   12.40638828  124.23000336    0.79000002    0.05000000
   12.40888882  129.15299988    0.79000002    0.05000000
   12.41027737  132.72500610    0.79000002    0.05000000
   12.41333294  127.26499939    0.79000002    0.05000000
   12.41666698  127.13600159    0.79000002    0.05000000
   12.42000008  131.13499451    0.79000002    0.05000000
   12.42305565  123.13600159    0.79000002    0.05000000
   12.42638874  143.83500671    0.79000002    0.05000000
   12.42944431  126.39499664    0.79000002    0.05000000
   12.43277836  125.90399933    0.79000002    0.05000000
   12.43861103  125.90399933    0.79000002    0.05000000
   12.44277763  130.44999695    0.79000002    0.05000000
   12.44611073  123.98799896    0.79000002    0.05000000
   12.44944477  122.26899719    0.79000002    0.05000000
   12.45249939  132.52299500    0.79000002    0.05000000
   12.45583344  131.96499634    0.79000002    0.05000000
   12.45888901  128.49200439    0.79000002    0.05000000
   12.46222210  139.74099731    0.79000002    0.05000000
   12.46555519  128.70799255    0.79000002    0.05000000
   12.46861076  125.69400024    0.79000002    0.05000000
   12.47194386  124.47599792    0.79000002    0.05000000
   12.47527695  134.45300293    0.79000002    0.05000000
   12.47555542  139.96600342    0.79000002    0.05000000
   12.48166656  139.96600342    0.79000002    0.05000000
   12.48583317  140.61099243    0.79000002    0.05000000
   12.48888874  139.41799927    0.79000002    0.05000000
   12.49222279  146.00999451    0.79000002    0.05000000
   12.49527836  140.54600525    0.79000002    0.05000000
   12.49861145  141.97300720    0.79000002    0.05000000
   12.50194454  134.82299805    0.79000002    0.05000000
   12.50500011  123.76399994    0.79000002    0.05000000
   12.50833321  126.25900269    0.79000002    0.05000000
   12.50888920  127.34500122    0.79000002    0.05000000
   12.51194477  134.24600220    0.79000002    0.05000000
   12.51527786  143.16299438    0.79000002    0.05000000
   12.51833344  122.33699799    0.79000002    0.05000000
   12.52444458  122.33699799    0.79000002    0.05000000
   12.52861118  131.67799377    0.79000002    0.05000000
   12.53166676  129.44700623    0.79000002    0.05000000
   12.53500080  125.20600128    0.79000002    0.05000000
   12.53833389  138.21899414    0.79000002    0.05000000
   12.54138947  141.08000183    0.79000002    0.05000000
   12.54250050  122.14800262    0.79000002    0.05000000
   12.54500008  118.73500061    0.79000002    0.05000000
   12.54833412  131.20599365    0.79000002    0.05000000
   12.55138874  122.59999847    0.79000002    0.05000000
   12.55472279  126.71399689    0.79000002    0.05000000
   12.55805588  132.52499390    0.79000002    0.05000000
   12.56111145  141.88999939    0.79000002    0.05000000
   12.56722260  141.88999939    0.79000002    0.05000000
   12.57138920  131.68099976    0.79000002    0.05000000
   12.57472229  145.49400330    0.79000002    0.05000000
   12.57583332  138.61799622    0.79000002    0.05000000
   12.57833290  132.72799683    0.79000002    0.05000000
   12.58166695  131.31500244    0.79000002    0.05000000
   12.58472157  126.64299774    0.79000002    0.05000000
   12.58805561  125.93000031    0.79000002    0.05000000
   12.59138870  144.04800415    0.79000002    0.05000000
   12.59444427  123.46800232    0.79000002    0.05000000
   12.59777737  131.35400391    0.79000002    0.05000000
   12.60111141  129.56100464    0.79000002    0.05000000
   12.60416698  121.58499908    0.79000002    0.05000000
   12.61000061  121.58499908    0.79000002    0.05000000
   12.61416721  127.75000000    0.79000002    0.05000000
   12.61750031  129.75599670    0.79000002    0.05000000
   12.62083340  126.69100189    0.79000002    0.05000000
   12.62388897  127.39499664    0.79000002    0.05000000
   12.62722206  123.82099915    0.79000002    0.05000000
   12.63055611  129.30099487    0.79000002    0.05000000
   12.63361073  152.32299805    0.79000002    0.05000000
   12.63694477  131.41200256    0.79000002    0.05000000
   12.64000034  134.80000305    0.79000002    0.05000000
   12.64249992  138.04200745    0.79000002    0.05000000
   12.64361095  136.20100403    0.79000002    0.05000000
   12.64694405  144.78900146    0.79000002    0.05000000
   12.65305519  144.78900146    0.79000002    0.05000000
   12.65722179  125.76399994    0.79000002    0.05000000
   12.66027737  121.58399963    0.79000002    0.05000000
   12.66361046  116.32399750    0.79000002    0.05000000
   12.66666698  130.30000305    0.79000002    0.05000000
   12.67000008  118.26699829    0.79000002    0.05000000
   12.67333412  132.75799561    0.79000002    0.05000000
   12.67583370  135.26300049    0.79000002    0.05000000
   12.67694473  135.23500061    0.79000002    0.05000000
   12.68027782  116.22200012    0.79000002    0.05000000
   12.68361092  120.00499725    0.79000002    0.05000000
   12.68666649  129.68699646    0.79000002    0.05000000
   12.69000053  140.39999390    0.79000002    0.05000000
   12.69583321  140.39999390    0.79000002    0.05000000
   12.69999981  134.30900574    0.79000002    0.05000000
   12.70305538  140.03799438    0.79000002    0.05000000
   12.70638847  134.79400635    0.79000002    0.05000000
   12.70916653  134.30799866    0.79000002    0.05000000
   12.71000004  136.42599487    0.79000002    0.05000000
   12.71333313  125.17900085    0.79000002    0.05000000
   12.71666622  138.96699524    0.79000002    0.05000000
   12.71972179  146.24899292    0.79000002    0.05000000
   12.72305489  128.41200256    0.79000002    0.05000000
   12.72638798  129.89399719    0.79000002    0.05000000
   12.72944355  139.13800049    0.79000002    0.05000000
   12.73277760  129.40400696    0.79000002    0.05000000
   12.73861122  129.40400696    0.79000002    0.05000000
   12.74277782  140.66900635    0.79000002    0.05000000
   12.74611092  128.56399536    0.79000002    0.05000000
   12.74916649  139.75700378    0.79000002    0.05000000
   12.75249958  151.33099365    0.79000002    0.05000000
   12.75583363  153.66700745    0.79000002    0.05000000
   12.75888920  127.51100159    0.79000002    0.05000000
   12.76222229  144.12100220    0.79000002    0.05000000
   12.76527786  128.30799866    0.79000002    0.05000000
   12.76861095  132.00199890    0.79000002    0.05000000
   12.77194405  129.71200562    0.79000002    0.05000000
   12.77499962  144.23800659    0.79000002    0.05000000
   12.77583313  157.40899658    0.79000002    0.05000000
   12.78138828  157.40899658    0.79000002    0.05000000
   12.78555584  136.62800598    0.79000002    0.05000000
   12.78888893  156.11700439    0.79000002    0.05000000
   12.79222298  142.97099304    0.79000002    0.05000000
   12.79527855  151.44500732    0.79000002    0.05000000
   12.79861164  152.97300720    0.79000002    0.05000000
   12.80194473  163.36399841    0.79000002    0.05000000
   12.80500031  166.89399719    0.79000002    0.05000000
   12.80833340  156.46000671    0.79000002    0.05000000
   12.80916691  159.65400696    0.79000002    0.05000000
   12.81194496  166.56900024    0.79000002    0.05000000
   12.81527805  149.24600220    0.79000002    0.05000000
   12.81861115  158.39999390    0.79000002    0.05000000
   12.82444477  158.39999390    0.79000002    0.05000000
   12.82861137  164.22700500    0.79000002    0.05000000
   12.83166695  135.02999878    0.79000002    0.05000000
   12.83500004  158.47900391    0.79000002    0.05000000
   12.83805561  149.01899719    0.79000002    0.05000000
   12.84138870  153.18899536    0.79000002    0.05000000
   12.84249973  149.86999512    0.79000002    0.05000000
   12.84499931  159.05400085    0.79000002    0.05000000
   12.84833336  150.92799377    0.79000002    0.05000000
   12.85166740  159.70599365    0.79000002    0.05000000
   12.85472298  160.92300415    0.79000002    0.05000000
   12.85805607  169.64399719    0.79000002    0.05000000
   12.86111164  188.94799805    0.79000002    0.05000000
   12.86722279  188.94799805    0.79000002    0.05000000
   12.87138939  163.85200500    0.79000002    0.05000000
   12.87444496  156.88400269    0.79000002    0.05000000
   12.87583351  151.32499695    0.79000002    0.05000000
   12.87805557  159.06100464    0.79000002    0.05000000
   12.88138866  143.49200439    0.79000002    0.05000000
   12.88472176  133.91000366    0.79000002    0.05000000
   12.88777733  154.31100464    0.79000002    0.05000000
   12.89111137  155.79299927    0.79000002    0.05000000
   12.89416695  142.96699524    0.79000002    0.05000000
   12.89750004  171.74600220    0.79000002    0.05000000
   12.90083313  140.82899475    0.79000002    0.05000000
   12.90388870  176.38400269    0.79000002    0.05000000
   12.90999985  176.38400269    0.79000002    0.05000000
   12.91416645  160.81199646    0.79000002    0.05000000
   12.91750050  166.95100403    0.79000002    0.05000000
   12.92055607  175.13200378    0.79000002    0.05000000
   12.92388916  180.12600708    0.79000002    0.05000000
   12.92694473  172.74699402    0.79000002    0.05000000
   12.93027782  179.17399597    0.79000002    0.05000000
   12.93361092  164.77299500    0.79000002    0.05000000
   12.93666649  157.72300720    0.79000002    0.05000000
   12.94000053  158.03500366    0.79000002    0.05000000
   12.94250011  166.21899414    0.79000002    0.05000000
   12.94361115  165.94200134    0.79000002    0.05000000
   12.94694424  156.47799683    0.79000002    0.05000000
   12.95277786  156.47799683    0.79000002    0.05000000
   12.95694447  151.73800659    0.79000002    0.05000000
   12.96027756  177.56300354    0.79000002    0.05000000
   12.96333313  144.17599487    0.79000002    0.05000000
   12.96666622  152.00500488    0.79000002    0.05000000
   12.96999931  155.39599609    0.79000002    0.05000000
   12.97305489  165.74000549    0.79000002    0.05000000
   12.97583294  157.02400208    0.79000002    0.05000000
   12.97666645  165.05599976    0.79000002    0.05000000
   12.97999954  139.86399841    0.79000002    0.05000000
   12.98333359  140.61599731    0.79000002    0.05000000
   12.98638916  146.54699707    0.79000002    0.05000000
   12.98972225  151.02999878    0.79000002    0.05000000
   12.99583340  151.02999878    0.79000002    0.05000000
   12.99972248  150.82600403    0.79000002    0.05000000
   13.00305557  142.58700562    0.79000002    0.05000000
   13.00638866  161.08200073    0.79000002    0.05000000
   13.00916672  161.40299988    0.79000002    0.05000000
   13.00972176  147.37399292    0.79000002    0.05000000
   13.01305580  166.06700134    0.79000002    0.05000000
   13.01638889  157.64300537    0.79000002    0.05000000
   13.01944447  150.63800049    0.79000002    0.05000000
   13.02277756  154.95599365    0.79000002    0.05000000
   13.02583313  148.38800049    0.79000002    0.05000000
   13.02916622  153.32699585    0.79000002    0.05000000
   13.03249931  151.26199341    0.79000002    0.05000000
   13.03861141  151.26199341    0.79000002    0.05000000
   13.04277802  137.63499451    0.79000002    0.05000000
   13.04583359  146.86099243    0.79000002    0.05000000
   13.04916668  139.86500549    0.79000002    0.05000000
   13.05249977  151.55700684    0.79000002    0.05000000
   13.05555534  150.03500366    0.79000002    0.05000000
   13.05888939  150.96699524    0.79000002    0.05000000
   13.06222248  144.09300232    0.79000002    0.05000000
   13.06527805  151.47500610    0.79000002    0.05000000
   13.06861115  140.27000427    0.79000002    0.05000000
   13.07166672  138.49299622    0.79000002    0.05000000
   13.07499981  150.56300354    0.79000002    0.05000000
   13.07583332  144.34700012    0.79000002    0.05000000
   13.08138847  144.34700012    0.79000002    0.05000000
   13.08555508  126.68499756    0.79000002    0.05000000
   13.08888817  135.75500488    0.79000002    0.05000000
   13.09194374  141.50300598    0.79000002    0.05000000
   13.09527779  126.30400085    0.79000002    0.05000000
   13.09861088  128.67999268    0.79000002    0.05000000
   13.10166740  130.44400024    0.79000002    0.05000000
   13.10500050  131.96600342    0.79000002    0.05000000
   13.10805607  133.36300659    0.79000002    0.05000000
   13.10916710  133.75000000    0.79000002    0.05000000
   13.11166668  124.30000305    0.79000002    0.05000000
   13.11500072  116.71199799    0.79000002    0.05000000
   13.11833382  132.26899719    0.79000002    0.05000000
   13.12416649  132.26899719    0.79000002    0.05000000
   13.12833309  138.07899475    0.79000002    0.05000000
   13.13166714  134.77099609    0.79000002    0.05000000
   13.13472176  122.77200317    0.79000002    0.05000000
   13.13805580  138.27999878    0.79000002    0.05000000
   13.14138889  130.16799927    0.79000002    0.05000000
   13.14249992  117.36900330    0.79000002    0.05000000
   13.14472198  136.25500488    0.79000002    0.05000000
   13.14805508  129.45199585    0.79000002    0.05000000
   13.15138817  125.47200012    0.79000002    0.05000000
   13.15444374  138.30700684    0.79000002    0.05000000
   13.15777779  130.94200134    0.79000002    0.05000000
   13.16111088  148.29899597    0.79000002    0.05000000
   13.16722298  148.29899597    0.79000002    0.05000000
   13.17111111  151.96200562    0.79000002    0.05000000
   13.17444515  151.64799500    0.79000002    0.05000000
   13.17583370  148.41900635    0.79000002    0.05000000
   13.17805576  151.33000183    0.79000002    0.05000000
   13.18138885  131.24600220    0.79000002    0.05000000
   13.18472195  139.78700256    0.79000002    0.05000000
   13.18777752  140.05099487    0.79000002    0.05000000
   13.19111156  132.57000732    0.79000002    0.05000000
   13.19444466  135.86099243    0.79000002    0.05000000
   13.19750023  130.30400085    0.79000002    0.05000000
   13.20083332  134.23300171    0.79000002    0.05000000
   13.20388889  121.73699951    0.79000002    0.05000000
   13.21000004  121.73699951    0.79000002    0.05000000
   13.21416664  124.29900360    0.79000002    0.05000000
   13.21722221  132.64300537    0.79000002    0.05000000
   13.22055531  134.13999939    0.79000002    0.05000000
   13.22388840  124.71199799    0.79000002    0.05000000
   13.22694397  130.24699402    0.79000002    0.05000000
   13.23027706  133.71699524    0.79000002    0.05000000
   13.23333359  134.64999390    0.79000002    0.05000000
   13.23666668  129.87800598    0.79000002    0.05000000
   13.24000072  126.08999634    0.79000002    0.05000000
   13.24250031  138.67599487    0.79000002    0.05000000
   13.24333382  127.90100098    0.79000002    0.05000000
   13.24666691  122.92199707    0.79000002    0.05000000
   13.25277805  122.92199707    0.79000002    0.05000000
   13.25694466  129.27799988    0.79000002    0.05000000
   13.26027775  123.59899902    0.79000002    0.05000000
   13.26333332  127.26599884    0.79000002    0.05000000
   13.26666641  131.26199341    0.79000002    0.05000000
   13.26972198  126.05100250    0.79000002    0.05000000
   13.27305508  120.54799652    0.79000002    0.05000000
   13.27583313  105.39600372    0.79000002    0.05000000
   13.27694416   94.49700165    0.79000002    0.05000000
   13.27999973  121.53299713    0.79000002    0.05000000
   13.28388977  126.81700134    0.79000002    0.05000000
   13.28694534  116.07800293    0.79000002    0.05000000
   13.29027843  119.65799713    0.79000002    0.05000000
   13.29555607  119.65799713    0.79000002    0.05000000
   13.29972267  121.78900146    0.79000002    0.05000000
   13.30305576  125.71600342    0.79000002    0.05000000
   13.30611134  125.55000305    0.79000002    0.05000000
   13.30916691  133.87600708    0.79000002    0.05000000
   13.31000042  118.49199677    0.79000002    0.05000000
   13.31305599  123.08799744    0.79000002    0.05000000
   13.31638908  118.19899750    0.79000002    0.05000000
   13.31944466  125.31300354    0.79000002    0.05000000
   13.32277775  132.62600708    0.79000002    0.05000000
   13.32611084  131.71699524    0.79000002    0.05000000
   13.32916641  124.06400299    0.79000002    0.05000000
   13.33249950  116.93000031    0.79000002    0.05000000
   13.34249973   -1.00000000    0.79000002    0.05000000
   13.34583282   -1.00000000    0.79000002    0.05000000
   13.34888840   -1.00000000    0.79000002    0.05000000
   13.35222244   -1.00000000    0.79000002    0.05000000
   13.35555553   -1.00000000    0.79000002    0.05000000
   13.35861111   -1.00000000    0.79000002    0.05000000
   13.36194515  123.94899750    0.79000002    0.05000000
   13.36527824  126.93599701    0.79000002    0.05000000
   13.36833382  125.29000092    0.79000002    0.05000000
   13.37166691  120.97699738    0.79000002    0.05000000
   13.37472248  121.75399780    0.79000002    0.05000000
   13.37583351  120.98400116    0.79000002    0.05000000
   13.39638901  120.98400116    0.79000002    0.05000000
   13.40055561  133.11900330    0.79000002    0.05000000
   13.40388870  130.75300598    0.79000002    0.05000000
   13.40694427  132.77299500    0.79000002    0.05000000
   13.40916634  126.42700195    0.79000002    0.05000000
   13.41083336  115.04699707    0.79000002    0.05000000
   13.41416645  121.52100372    0.79000002    0.05000000
   13.41722298  122.53600311    0.79000002    0.05000000
   13.42055607  128.02900696    0.79000002    0.05000000
   13.42361164  128.64900208    0.79000002    0.05000000
   13.42694473  128.83299255    0.79000002    0.05000000
   13.43027782  119.10299683    0.79000002    0.05000000
   13.43333340  134.02699280    0.79000002    0.05000000
   13.43916702  134.02699280    0.79000002    0.05000000
   13.44333363  139.46099854    0.79000002    0.05000000
   13.44666672  129.65499878    0.79000002    0.05000000
   13.44972229  123.68699646    0.79000002    0.05000000
   13.45305538  135.92799377    0.79000002    0.05000000
   13.45638847  131.39599609    0.79000002    0.05000000
   13.45944405  139.05400085    0.79000002    0.05000000
   13.46277714  127.44100189    0.79000002    0.05000000
   13.46583271  144.91299438    0.79000002    0.05000000
   13.46916580  129.14199829    0.79000002    0.05000000
   13.47249985  137.33799744    0.79000002    0.05000000
   13.47555542  117.59500122    0.79000002    0.05000000
   13.47611046  123.63400269    0.79000002    0.05000000
   13.48194408  123.63400269    0.79000002    0.05000000
