    HOUR (UT)   FLARE FACTOR    SKY TESTER    SUN TESTER
   12.82777786   -1.00000000   -1.00000000   -1.00000000
   12.90361118  306.85598755    4.90999985    2.30999994
   12.90694427  281.60998535    4.90999985    2.28999996
   12.91027737  243.54299927    4.90999985    2.30999994
   12.91333294  234.60699463    4.90999985    2.30999994
   12.91666698  169.42500305    4.90999985    2.28999996
   12.92000008  171.96699524    4.90999985    2.30999994
   12.92416668  171.96699524    4.90999985    2.28999996
   12.92805576  142.38499451    4.90999985    2.28999996
   12.93138885  103.12699890    4.90999985    2.30999994
   12.93472195  106.53399658    4.90999985    2.28999996
   12.93694496  123.45300293    4.90999985    2.30999994
   12.93833351   85.73930359    4.90999985    2.30999994
   12.94166660   65.81510162    4.90999985    2.30999994
   12.94472218   33.51029968    4.90999985    2.30999994
   12.94805527   -1.00000000    4.90999985    2.30999994
   12.95111084   -1.00000000    4.90999985    2.30999994
   12.95444393   -1.00000000    4.90999985    2.30999994
   12.95777798   -1.00000000    4.90999985    2.32999992
   12.96083355   -1.00000000    4.90999985    2.30999994
   12.96694374   -1.00000000    4.90999985    2.30999994
   12.97111034   -1.00000000    4.90999985    2.30999994
   12.97416592   -1.00000000    4.90999985    2.30999994
   12.97749996   -1.00000000    4.90999985    2.30999994
   12.98055553   -1.00000000    4.90999985    2.32999992
   12.98388958   -1.00000000    4.90999985    2.32999992
   12.98722267   -1.00000000    4.90999985    2.32999992
   12.99027824   -1.00000000    4.90999985    2.32999992
   12.99361134   -1.00000000    4.90999985    2.32999992
   12.99694443   -1.00000000    4.90999985    2.32999992
   13.00000000   -1.00000000    4.90999985    2.32999992
   13.00333309   -1.00000000    4.90999985    2.32999992
   13.01388931   -1.00000000    4.90999985    2.32999992
   13.01694393   -1.00000000    4.90999985    2.32999992
   13.02027798   -1.00000000    4.90999985    2.34999990
   13.02333355   -1.00000000    4.90999985    2.32999992
   13.02666664   -1.00000000    4.90999985    2.32999992
   13.02999973   -1.00000000    4.90999985    2.32999992
   13.03305531   -1.00000000    4.90999985    2.34999990
   13.03638935   -1.00000000    4.90999985    2.34999990
   13.04000092   -1.00000000    4.90999985    2.34999990
   13.04333401   -1.00000000    4.90999985    2.34999990
   13.04638958   -1.00000000    4.90999985    2.34999990
   13.05666733   -1.00000000    4.90999985    2.36999989
   13.05972195   -1.00000000    4.90999985    2.36999989
   13.06305599   -1.00000000    4.90999985    2.36999989
   13.06638908   -1.00000000    4.90999985    2.36999989
   13.06944466   -1.00000000    4.90999985    2.36999989
   13.07305527   -1.00000000    4.90999985    2.36999989
   13.07638836   -1.00000000    4.90999985    2.36999989
   13.07944393   -1.00000000    4.90999985    2.34999990
   13.08277798   -1.00000000    4.90999985    2.36999989
   13.08611107   -1.00000000    4.90999985    2.36999989
   13.08916664   -1.00000000    4.90999985    2.36999989
   13.09944439   -1.00000000    4.90999985    2.36999989
   13.10277843   -1.00000000    4.90999985    2.36999989
   13.10611153   -1.00000000    4.90999985    2.36999989
   13.10944462   -1.00000000    4.90999985    2.39000010
   13.11250019   -1.00000000    4.90999985    2.39000010
   13.11583328   -1.00000000    4.90999985    2.39000010
   13.11916637   -1.00000000    4.90999985    2.39000010
   13.12222195   -1.00000000    4.90999985    2.39000010
   13.12555599   -1.00000000    4.90999985    2.39000010
   13.12861156   -1.00000000    4.90999985    2.39000010
   13.13194466   -1.00000000    4.90999985    2.39000010
   13.14222240   -1.00000000    4.90999985    2.39000010
   13.14555550   -1.00000000    4.90999985    2.39000010
   13.14888859   -1.00000000    4.90999985    2.39000010
   13.15194416   -1.00000000    4.90999985    2.39000010
   13.15527725   -1.00000000    4.90999985    2.40000010
   13.15833282   -1.00000000    4.90999985    2.39000010
   13.16166592   -1.00000000    4.90999985    2.40000010
   13.16499996   -1.00000000    4.90999985    2.39000010
   13.16805553   -1.00000000    4.90999985    2.40000010
   13.17166710   -1.00000000    4.90999985    2.39000010
   13.17500019   -1.00000000    4.90999985    2.40000010
   13.18527794   -1.00000000    4.90999985    2.40000010
   13.18833351   -1.00000000    4.90999985    2.40000010
   13.19166660   -1.00000000    4.90999985    2.40000010
   13.19472218   -1.00000000    4.90999985    2.40000010
   13.19805527   -1.00000000    4.90999985    2.40000010
   13.20138836   -1.00000000    4.90999985    2.40000010
   13.20472240   -1.00000000    4.90999985    2.42000008
   13.20805550   -1.00000000    4.90999985    2.42000008
   13.21111107   -1.00000000    4.90999985    2.42000008
   13.21444416   -1.00000000    4.90999985    2.40000010
   13.21777725   -1.00000000    4.90999985    2.42000008
   13.22805500   -1.00000000    4.90999985    2.42000008
   13.23111057   -1.00000000    4.90999985    2.42000008
   13.23444462   -1.00000000    4.90999985    2.42000008
   13.23805618   -1.00000000    4.90999985    2.42000008
   13.24138927   -1.00000000    4.90999985    2.42000008
   13.24444485   -1.00000000    4.90999985    2.42000008
   13.24777794   -1.00000000    4.90999985    2.42000008
   13.25111103   -1.00000000    4.90999985    2.42000008
   13.25416660   -1.00000000    4.90999985    2.42000008
   13.25749969   -1.00000000    4.90999985    2.42000008
   13.26055527   -1.00000000    4.90999985    2.42000008
   13.27083302   -1.00000000    4.90999985    2.42000008
   13.27416611   -1.00000000    4.90999985    2.42000008
   13.27722168   -1.00000000    4.90999985    2.42000008
   13.28055573   -1.00000000    4.90999985    2.44000006
   13.28361130   -1.00000000    4.90999985    2.42000008
   13.28694534   -1.00000000    4.90999985    2.44000006
   13.29027843   -1.00000000    4.90999985    2.44000006
   13.29333401   -1.00000000    4.90999985    2.42000008
   13.29666710   -1.00000000    4.90999985    2.42000008
   13.30000019   -1.00000000    4.90999985    2.44000006
   13.30305576   -1.00000000    4.90999985    2.44000006
   13.31361103   -1.00000000    4.90999985    2.44000006
   13.31694412   -1.00000000    4.90999985    2.44000006
   13.31999969   -1.00000000    4.90999985    2.46000004
   13.32333374   -1.00000000    4.90999985    2.44000006
   13.32666683   -1.00000000    4.90999985    2.44000006
   13.32972240   -1.00000000    4.90999985    2.44000006
   13.33305550   -1.00000000    4.90999985    2.44000006
   13.33638859   -1.00000000    4.90999985    2.44000006
   13.33972168   -1.00000000    4.90999985    2.46000004
   13.34305477   -1.00000000    4.90999985    2.46000004
   13.34611034   -1.00000000    4.90999985    2.46000004
   13.35638905   -1.00000000    4.90999985    2.46000004
   13.35972214   -1.00000000    4.90999985    2.46000004
   13.36305618   -1.00000000    4.90999985    2.46000004
   13.36611176   -1.00000000    4.90999985    2.46000004
   13.36944485   -1.00000000    4.90999985    2.46000004
   13.37277794   -1.00000000    4.90999985    2.46000004
   13.37611103   -1.00000000    4.90999985    2.46000004
   13.37916660   -1.00000000    4.90999985    2.46000004
   13.38249969   -1.00000000    4.90999985    2.46000004
   13.38583279   -1.00000000    4.90999985    2.46000004
   13.38888836   -1.00000000    4.90999985    2.46000004
   13.39944458   -1.00000000    4.90999985    2.48000002
   13.40249920   -1.00000000    4.90999985    2.48000002
   13.40611076   -1.00000000    4.90999985    2.48000002
   13.40944386   -1.00000000    4.90999985    2.46000004
   13.41249943   -1.00000000    4.90999985    2.48000002
   13.41583252   -1.00000000    4.90999985    2.46000004
   13.41916656   -1.00000000    4.90999985    2.46000004
   13.42222214   -1.00000000    4.90999985    2.46000004
   13.42555618   -1.00000000    4.90999985    2.48000002
   13.42888927   -1.00000000    4.90999985    2.48000002
   13.43194485   -1.00000000    4.90999985    2.46000004
   13.44222260   -1.00000000    4.90999985    2.48000002
   13.44555569   -1.00000000    4.90999985    2.48000002
   13.44861126   -1.00000000    4.90999985    2.48000002
   13.45194435   -1.00000000    4.90999985    2.48000002
   13.45499992   87.35279846    4.90999985    2.48000002
   13.45833302  207.51699829    4.90999985    2.48000002
   13.46166611  185.17500305    4.90999985    2.48000002
   13.46472168  244.76199341    4.90999985    2.48000002
   14.77250004   -1.00000000   -1.00000000   -1.00000000
   15.04805565   -1.00000000   -1.00000000   -1.00000000
   15.26000023   -1.00000000   -1.00000000   -1.00000000
   15.42555618   72.55809784    4.90999985    2.71000004
   15.42888927  123.92900085    4.90999985    2.73000002
   15.43194485  128.49099731    4.90999985    2.71000004
   15.43527794  127.48000336    4.90999985    2.73000002
   15.43833351  130.69700623    4.90999985    2.75000000
   15.44166660  131.44900513    4.90999985    2.73000002
   15.44583321  131.44900513    4.90999985    2.73000002
   15.44999981  126.63200378    4.90999985    2.73000002
   15.45305538  130.81199646    4.90999985    2.73000002
   15.45638847  132.83700562    4.90999985    2.73000002
   15.45888901  131.88200378    4.90999985    2.73000002
   15.46027756  126.92199707    4.90999985    2.73000002
   15.46333313  126.59700012    4.90999985    2.73000002
   15.46666622  121.11599731    4.90999985    2.73000002
   15.46972179  126.79599762    4.90999985    2.73000002
   15.47305489  126.35299683    4.90999985    2.75000000
   15.47638798  126.91500092    4.90999985    2.73000002
   15.47944355  126.09100342    4.90999985    2.73000002
   15.48277760  128.71000671    4.90999985    2.73000002
   15.48861122  128.71000671    4.90999985    2.73000002
   15.49277782  117.73000336    4.90999985    2.73000002
   15.49611092  118.65599823    4.90999985    2.73000002
   15.49916649  119.17400360    4.90999985    2.73000002
   15.50249958  121.65100098    4.90999985    2.73000002
   15.50583363  122.68399811    4.90999985    2.73000002
   15.50888920  117.56099701    4.90999985    2.73000002
   15.51222229  124.36799622    4.90999985    2.73000002
   15.51527786  117.89399719    4.90999985    2.73000002
   15.51861095  126.97299957    4.90999985    2.73000002
   15.52194405  125.19400024    4.90999985    2.73000002
   15.52499962  120.50399780    4.90999985    2.73000002
   15.52555561  126.52100372    4.90999985    2.73000002
   15.53138828  126.52100372    4.90999985    2.73000002
   15.53555584  130.71499634    4.90999985    2.73000002
   15.53888893  125.04100037    4.90999985    2.73000002
   15.54222298  117.86000061    4.90999985    2.73000002
   15.54527855  124.51599884    4.90999985    2.73000002
   15.54861164  119.46299744    4.90999985    2.73000002
   15.55166721  122.46099854    4.90999985    2.73000002
   15.55500031  122.43699646    4.90999985    2.73000002
   15.55833340  123.98799896    4.90999985    2.73000002
   15.55888939  122.41200256    4.90999985    2.73000002
   15.56194496  122.19499969    4.90999985    2.73000002
   15.56500053  120.97399902    4.90999985    2.73000002
   15.56833363  127.40100098    4.90999985    2.73000002
   15.57444477  127.40100098    4.90999985    2.73000002
   15.57861137  119.48400116    4.90999985    2.73000002
   15.58166695  121.09700012    4.90999985    2.73000002
   15.58500004  120.96800232    4.90999985    2.73000002
   15.58805561  111.06900024    4.90999985    2.73000002
   15.59138870  118.77700043    4.90999985    2.73000002
   15.59222221  122.23000336    4.90999985    2.73000002
   15.59499931  118.80799866    4.90999985    2.73000002
   15.59833336  120.77100372    4.90999985    2.73000002
   15.60138893  116.37400055    4.90999985    2.73000002
   15.60472298  118.30200195    4.90999985    2.73000002
   15.60805607  118.19400024    4.90999985    2.73000002
   15.61111164  114.55699921    4.90999985    2.73000002
   15.61722279  114.55699921    4.90999985    2.75000000
   15.62138939  115.43900299    4.90999985    2.75000000
   15.62444496  122.83000183    4.90999985    2.73000002
   15.62555599  117.30100250    4.90999985    2.73000002
   15.62833309  113.33699799    4.90999985    2.73000002
   15.63166714  118.13099670    4.90999985    2.73000002
   15.63472176  116.11299896    4.90999985    2.73000002
   15.63805580  116.63200378    4.90999985    2.73000002
   15.64138889  119.52300262    4.90999985    2.73000002
   15.64444447  115.72299957    4.90999985    2.73000002
   15.64777756  111.55300140    4.90999985    2.75000000
   15.65083313  110.94999695    4.90999985    2.75000000
   15.65416622  119.17500305    4.90999985    2.73000002
   15.65999985  119.17500305    4.90999985    2.75000000
   15.66416645  114.78099823    4.90999985    2.73000002
   15.66750050  117.48100281    4.90999985    2.73000002
   15.67055607  118.46399689    4.90999985    2.73000002
   15.67388916  121.44400024    4.90999985    2.73000002
   15.67722225  116.69200134    4.90999985    2.75000000
   15.68027782  118.08499908    4.90999985    2.73000002
   15.68361092  117.35900116    4.90999985    2.75000000
   15.68666649  115.82399750    4.90999985    2.75000000
   15.69000053  115.24500275    4.90999985    2.75000000
   15.69222260  112.10700226    4.90999985    2.73000002
   15.69361115  116.74500275    4.90999985    2.75000000
   15.69694424  117.27300262    4.90999985    2.73000002
   15.70277786  117.27300262    4.90999985    2.73000002
   15.70694447  119.75900269    4.90999985    2.73000002
   15.71027756  121.65399933    4.90999985    2.73000002
   15.71361065  114.22899628    4.90999985    2.73000002
   15.71666622  113.45400238    4.90999985    2.73000002
   15.71999931  115.55300140    4.90999985    2.73000002
   15.72305489  121.08100128    4.90999985    2.75000000
   15.72555542  118.60099792    4.90999985    2.73000002
   15.72694397  112.89099884    4.90999985    2.73000002
   15.73027706  116.64700317    4.90999985    2.73000002
   15.73333359  115.84300232    4.90999985    2.73000002
   15.73666668  116.48400116    4.90999985    2.73000002
   15.73972225  117.41400146    4.90999985    2.73000002
   15.74583340  117.41400146    4.90999985    2.73000002
   15.75000000  112.58799744    4.90999985    2.73000002
   15.75305557  112.67299652    4.90999985    2.73000002
   15.75638866  112.05999756    4.90999985    2.73000002
   15.75888920  108.37500000    4.90999985    2.73000002
   15.76000023  112.72899628    4.90999985    2.75000000
   15.76333332  118.69100189    4.90999985    2.73000002
   15.76638889  117.04199982    4.90999985    2.75000000
   15.76972198  110.15899658    4.90999985    2.73000002
   15.77305508  113.28800201    4.90999985    2.73000002
   15.77611065  116.95700073    4.90999985    2.75000000
   15.77944374  116.15100098    4.90999985    2.73000002
   15.78277779  110.59400177    4.90999985    2.73000002
   15.78861141  110.59400177    4.90999985    2.73000002
   15.79277802  110.52700043    4.90999985    2.73000002
   15.79583359  112.44400024    4.90999985    2.73000002
   15.79916668  117.03500366    4.90999985    2.75000000
   15.80249977  114.84600067    4.90999985    2.73000002
   15.80555534  108.34100342    4.90999985    2.75000000
   15.80888939  113.34200287    4.90999985    2.73000002
   15.81222248  118.77799988    4.90999985    2.73000002
   15.81527805  111.87799835    4.90999985    2.73000002
   15.81861115  114.50900269    4.90999985    2.73000002
   15.82166672  118.86699677    4.90999985    2.75000000
   15.82499981  117.87699890    4.90999985    2.73000002
   15.82555580  115.26399994    4.90999985    2.73000002
   15.83138847  115.26399994    4.90999985    2.73000002
   15.83555508  116.18099976    4.90999985    2.73000002
   15.83888817  116.57900238    4.90999985    2.73000002
   15.84194374  116.06400299    4.90999985    2.75000000
   15.84527779  110.01300049    4.90999985    2.75000000
   15.84861088  112.55100250    4.90999985    2.73000002
   15.85166740  111.38899994    4.90999985    2.73000002
   15.85500050  110.04100037    4.90999985    2.75000000
   15.85833359  114.34700012    4.90999985    2.75000000
   15.85888958  111.55500031    4.90999985    2.73000002
   15.86194515  113.10800171    4.90999985    2.73000002
   15.86527824  112.21800232    4.90999985    2.73000002
   15.86833382  115.79599762    4.90999985    2.73000002
   15.87416649  115.79599762    4.90999985    2.75000000
   15.87833309  111.30400085    4.90999985    2.73000002
   15.88166714  112.24500275    4.90999985    2.73000002
   15.88500023  117.84200287    4.90999985    2.75000000
   15.88805580  116.16200256    4.90999985    2.73000002
   15.89138889  112.55999756    4.90999985    2.75000000
   15.89222240  115.35099792    4.90999985    2.75000000
   15.89499950  110.44499969    4.90999985    2.75000000
   15.89833355  112.13500214    4.90999985    2.75000000
   15.90138817  112.34700012    4.90999985    2.73000002
   15.90472221  112.29000092    4.90999985    2.75000000
   15.90805531  111.67800140    4.90999985    2.75000000
   15.91111088  109.06700134    4.90999985    2.75000000
   15.91722298  109.06700134    4.90999985    2.73000002
   15.92111111  108.97699738    4.90999985    2.75000000
   15.92444515  111.52799988    4.90999985    2.75000000
   15.92555618  107.88600159    4.90999985    2.73000002
   15.92805576  107.98100281    4.90999985    2.75000000
   15.93138885  107.09300232    4.90999985    2.75000000
   15.93444443  105.38099670    4.90999985    2.75000000
   15.93777752  108.52300262    4.90999985    2.75000000
   15.94111156  109.58000183    4.90999985    2.73000002
   15.94416714  107.77500153    4.90999985    2.73000002
   15.94750023  110.13899994    4.90999985    2.75000000
   15.95055580  114.17800140    4.90999985    2.75000000
   15.95388889  114.08999634    4.90999985    2.75000000
   15.96000004  114.08999634    4.90999985    2.75000000
   15.96416664  108.74900055    4.90999985    2.75000000
   15.96722221  102.75099945    4.90999985    2.75000000
   15.97055531  110.69300079    4.90999985    2.75000000
   15.97388840  107.03199768    4.90999985    2.73000002
   15.97694397  110.07299805    4.90999985    2.73000002
   15.98027706  110.32800293    4.90999985    2.73000002
   15.98333359  108.34500122    4.90999985    2.75000000
   15.98666668  106.62899780    4.90999985    2.75000000
   15.99000072  105.81900024    4.90999985    2.75000000
   15.99222279  108.34899902    4.90999985    2.75000000
   15.99361134  105.80100250    4.90999985    2.75000000
   15.99694443  107.28199768    4.90999985    2.75000000
   16.00277710  107.28199768    4.90999985    2.75000000
   16.00694466  106.81400299    4.90999985    2.75000000
   16.01027870  106.98500061    4.90999985    2.75000000
   16.01333427  110.71600342    4.90999985    2.75000000
   16.01666641  109.28600311    4.90999985    2.75000000
   16.01972198  109.26699829    4.90999985    2.75000000
   16.02305603  111.72899628    4.90999985    2.73000002
   16.02583313  110.76499939    4.90999985    2.75000000
   16.02666664  108.56800079    4.90999985    2.75000000
   16.03000069  113.55699921    4.90999985    2.73000002
   16.03305435  108.87899780    4.90999985    2.75000000
   16.03638840  107.64399719    4.90999985    2.75000000
   16.03972244  108.19300079    4.90999985    2.75000000
   16.04555511  108.19300079    4.90999985    2.75000000
   16.04972076  109.07800293    4.90999985    2.75000000
