    HOUR (UT)   FLARE FACTOR    SKY TESTER    SUN TESTER
   11.67416668   -1.00000000   -1.00000000   -1.00000000
   11.74666691  333.80899048    4.90999985    2.25000000
   11.74972248  233.03100586    4.90999985    2.03999996
   11.75305557  299.87799072    4.90999985    1.94000006
   11.75611115  251.03199768    4.90999985    1.96000004
   11.75944424  305.16598511    4.90999985    1.96000004
   11.76277733  279.77801514    4.90999985    1.96000004
   11.76694393  279.77801514    4.90999985    1.94000006
   11.77083302  298.37600708    4.90999985    2.03999996
   11.77416611  262.12200928    4.90999985    2.19000006
   11.77750015  259.42498779    4.90999985    2.30999994
   11.77972221  206.42999268    4.90999985    2.39000010
   11.78111076  196.63200378    4.90999985    2.42000008
   11.78416729  177.26100159    4.90999985    2.57999992
   11.78750038  178.41600037    4.90999985    2.61999989
   11.79083347  174.05400085    4.90999985    2.59999990
   11.79388905  163.92599487    4.90999985    2.59999990
   11.79722309  166.13999939    4.90999985    2.57999992
   11.80055618  180.54699707    4.90999985    2.55999994
   11.80361176  171.39999390    4.90999985    2.55999994
   11.80972195  171.39999390    4.90999985    2.55999994
   11.81388950  167.03900146    4.90999985    2.55999994
   11.81694412  167.79200745    4.90999985    2.55999994
   11.82027817  159.93699646    4.90999985    2.55999994
   11.82333374  180.77000427    4.90999985    2.53999996
   11.82666683  162.59800720    4.90999985    2.55999994
   11.82999992  177.03599548    4.90999985    2.55999994
   11.83305550  172.69099426    4.90999985    2.55999994
   11.83638859  158.56300354    4.90999985    2.55999994
   11.83972168  163.03900146    4.90999985    2.55999994
   11.84277725  164.56199646    4.90999985    2.55999994
   11.84611034  170.79400635    4.90999985    2.55999994
   11.84666634  166.05999756    4.90999985    2.55999994
   11.85249996  166.05999756    4.90999985    2.55999994
   11.85666752  166.06500244    4.90999985    2.55999994
   11.86000061  163.97000122    4.90999985    2.55999994
   11.86305618  158.59500122    4.90999985    2.55999994
   11.86638927  153.92199707    4.90999985    2.55999994
   11.86944485  153.63400269    4.90999985    2.57999992
   11.87277794  158.02000427    4.90999985    2.55999994
   11.87611103  171.21899414    4.90999985    2.57999992
   11.87916660  151.41700745    4.90999985    2.57999992
   11.88000011  158.38699341    4.90999985    2.55999994
   11.88305569  157.96000671    4.90999985    2.57999992
   11.88611126  151.13800049    4.90999985    2.57999992
   11.88944435  149.73599243    4.90999985    2.59999990
   11.89527798  149.73599243    4.90999985    2.57999992
   11.89944458  143.00399780    4.90999985    2.55999994
   11.90277767  150.99800110    4.90999985    2.57999992
   11.90583324  149.99899292    4.90999985    2.57999992
   11.90916634  148.93899536    4.90999985    2.57999992
   11.91249943  153.03799438    4.90999985    2.59999990
   11.91333294  152.42799377    4.90999985    2.57999992
   11.91611099  151.37800598    4.90999985    2.57999992
   11.91916656  153.51600647    4.90999985    2.57999992
   11.92250061  148.20599365    4.90999985    2.57999992
   11.92555618  163.60099792    4.90999985    2.57999992
   11.92888927  145.93899536    4.90999985    2.57999992
   11.93222237  147.82499695    4.90999985    2.59999990
   11.93833351  147.82499695    4.90999985    2.57999992
   11.94222260  144.22200012    4.90999985    2.57999992
   11.94555569  147.23100281    4.90999985    2.59999990
   11.94666672  145.83999634    4.90999985    2.57999992
   11.94916630  157.37899780    4.90999985    2.59999990
   11.95249939  147.98199463    4.90999985    2.59999990
   11.95583344  154.53999329    4.90999985    2.59999990
   11.95888901  160.75199890    4.90999985    2.59999990
   11.96222210  150.80999756    4.90999985    2.59999990
   11.96555519  150.68800354    4.90999985    2.59999990
   11.96861076  155.85600281    4.90999985    2.59999990
   11.97194386  148.44900513    4.90999985    2.59999990
   11.97499943  145.38499451    4.90999985    2.59999990
   11.98111057  145.38499451    4.90999985    2.59999990
   11.98527813  146.52400208    4.90999985    2.59999990
   11.98833370  148.98399353    4.90999985    2.61999989
   11.99166679  148.64500427    4.90999985    2.61999989
   11.99472237  139.82299805    4.90999985    2.59999990
   11.99805546  165.36700439    4.90999985    2.61999989
   12.00138855  142.48699951    4.90999985    2.59999990
   12.00444412  150.86700439    4.90999985    2.59999990
   12.00777817  157.07099915    4.90999985    2.59999990
   12.01111126  150.06700134    4.90999985    2.59999990
   12.01333332  134.10699463    4.90999985    2.61999989
   12.01444435  142.23800659    4.90999985    2.61999989
   12.01777744  146.64700317    4.90999985    2.59999990
   12.02388859  146.64700317    4.90999985    2.61999989
   12.02805519  145.56500244    4.90999985    2.61999989
   12.03111076  146.80099487    4.90999985    2.61999989
   12.03444481  135.99800110    4.90999985    2.61999989
   12.03777790  140.13299561    4.90999985    2.61999989
   12.04083347  145.73500061    4.90999985    2.61999989
   12.04416752  145.32800293    4.90999985    2.61999989
   12.04666710  133.36999512    4.90999985    2.61999989
   12.04777813  143.46200562    4.90999985    2.61999989
   12.05111122  141.75300598    4.90999985    2.61999989
   12.05444431  139.19099426    4.90999985    2.64000010
   12.05749989  139.33000183    4.90999985    2.64000010
   12.06083393  144.24899292    4.90999985    2.64000010
   12.06666660  144.24899292    4.90999985    2.64000010
   12.07083321  150.42999268    4.90999985    2.61999989
   12.07416630  143.28999329    4.90999985    2.61999989
   12.07722187  134.96800232    4.90999985    2.61999989
   12.07999992  144.83900452    4.90999985    2.64000010
   12.08083344  140.59899902    4.90999985    2.64000010
   12.08416653  144.59399414    4.90999985    2.64000010
   12.08749962  144.40699768    4.90999985    2.64000010
   12.09055519  135.47200012    4.90999985    2.64000010
   12.09388828  148.91400146    4.90999985    2.64000010
   12.09722233  137.47799683    4.90999985    2.64000010
   12.10027790  132.74600220    4.90999985    2.64000010
   12.10361195  142.54299927    4.90999985    2.64000010
   12.10944462  142.54299927    4.90999985    2.64000010
   12.11361122  148.57299805    4.90999985    2.66000009
   12.11694431  137.99499512    4.90999985    2.64000010
   12.12027836  140.40899658    4.90999985    2.64000010
   12.12333393  144.38099670    4.90999985    2.64000010
   12.12666702  134.09700012    4.90999985    2.64000010
   12.12972260  132.08399963    4.90999985    2.64000010
   12.13305569  137.40899658    4.90999985    2.67000008
   12.13638878  159.46899414    4.90999985    2.66000009
   12.13944435  152.50900269    4.90999985    2.51999998
   12.14277744  153.16600037    4.90999985    2.51999998
   12.14611053  147.87399292    4.90999985    2.51999998
   12.14666653  153.02600098    4.90999985    2.51999998
   12.15249920  153.02600098    4.90999985    2.59999990
   12.15666676  149.47900391    4.90999985    2.57999992
   12.15972137  128.99099731    4.90999985    2.66000009
   12.16305542  130.72700500    4.90999985    2.67000008
   12.16638851  130.34700012    4.90999985    2.66000009
   12.16944504  128.00900269    4.90999985    2.66000009
   12.17277813  138.01600647    4.90999985    2.66000009
   12.17583370  144.14300537    4.90999985    2.66000009
   12.17916679  141.77699280    4.90999985    2.66000009
   12.18000031  134.57000732    4.90999985    2.66000009
   12.18305588  131.21200562    4.90999985    2.66000009
   12.18611145  135.58399963    4.90999985    2.66000009
   12.18944454  134.03599548    4.90999985    2.66000009
   12.19527817  134.03599548    4.90999985    2.66000009
   12.19944477  137.27799988    4.90999985    2.67000008
   12.20249939  132.64599609    4.90999985    2.67000008
   12.20583344  136.19299316    4.90999985    2.67000008
   12.20916653  135.85299683    4.90999985    2.66000009
   12.21222210  126.87899780    4.90999985    2.69000006
   12.21333313  135.91200256    4.90999985    2.69000006
   12.21611118  130.86700439    4.90999985    2.69000006
   12.21916580  145.68299866    4.90999985    2.64000010
   12.22249985  148.44000244    4.90999985    2.53999996
   12.22555542  167.13600159    4.90999985    2.48000002
   12.22888851  169.35499573    4.90999985    2.40000010
   12.23222160  165.23800659    4.90999985    2.42000008
   12.23805618  165.23800659    4.90999985    2.46000004
   12.24222279  160.84500122    4.90999985    2.53999996
   12.24555588  146.70700073    4.90999985    2.46000004
   12.24666691  150.06500244    4.90999985    2.51999998
   12.24916649  144.89900208    4.90999985    2.55999994
   12.25222206  131.62899780    4.90999985    2.71000004
   12.25555515  144.19299316    4.90999985    2.71000004
   12.25861073  139.46299744    4.90999985    2.69000006
   12.26194477  146.55299377    4.90999985    2.69000006
   12.26527786  142.01499939    4.90999985    2.57999992
   12.26833344  161.15499878    4.90999985    2.48000002
   12.27166653  158.25399780    4.90999985    2.50000000
   12.27499962  162.08200073    4.90999985    2.57999992
   12.28083324  162.08200073    4.90999985    2.42000008
   12.28500080  207.67799377    4.90999985    2.50000000
   12.28833389  151.62699890    4.90999985    2.34999990
   12.29166698  175.13900757    4.90999985    2.48000002
   12.29472256  148.06100464    4.90999985    2.48000002
   12.29805565  149.60699463    4.90999985    2.55999994
   12.30111122  145.13099670    4.90999985    2.55999994
   12.30444431  154.23300171    4.90999985    2.50000000
   12.30777836  138.89799500    4.90999985    2.55999994
   12.31083393  133.97500610    4.90999985    2.67000008
   12.31333351  131.93499756    4.90999985    2.67000008
   12.31472206  137.83900452    4.90999985    2.67000008
   12.31777763  132.74699402    4.90999985    2.66000009
   12.32388878  132.74699402    4.90999985    2.61999989
   12.32777786  145.91600037    4.90999985    2.69000006
   12.33111095  130.39399719    4.90999985    2.71000004
   12.33444405  141.51699829    4.90999985    2.69000006
   12.33749962  126.97100067    4.90999985    2.69000006
   12.34083271  126.99700165    4.90999985    2.69000006
   12.34416676  134.25000000    4.90999985    2.69000006
   12.34666634  131.60200500    4.90999985    2.69000006
   12.34777737  133.25700378    4.90999985    2.69000006
   12.35083389  139.02200317    4.90999985    2.69000006
   12.35416698  135.08700562    4.90999985    2.69000006
   12.35722256  139.11599731    4.90999985    2.69000006
   12.36055565  140.62600708    4.90999985    2.69000006
   12.36666679  140.62600708    4.90999985    2.71000004
   12.37083340  127.50599670    4.90999985    2.69000006
   12.37388897  128.95100403    4.90999985    2.69000006
   12.37722206  131.68800354    4.90999985    2.71000004
   12.38000011  139.38600159    4.90999985    2.69000006
   12.38111115  124.68599701    4.90999985    2.69000006
   12.38416672  123.80899811    4.90999985    2.69000006
   12.38749981  126.10299683    4.90999985    2.71000004
   12.39055538  141.32400513    4.90999985    2.69000006
   12.39388847  133.60099792    4.90999985    2.69000006
   12.39722252  144.88400269    4.90999985    2.71000004
   12.40027714  138.45300293    4.90999985    2.71000004
   12.40361118  138.22300720    4.90999985    2.71000004
   12.40944386  138.22300720    4.90999985    2.71000004
   12.41361046  132.19500732    4.90999985    2.71000004
   12.41694450  137.48199463    4.90999985    2.71000004
   12.42000008  126.24900055    4.90999985    2.69000006
   12.42333412  132.55200195    4.90999985    2.71000004
   12.42638874  131.24600220    4.90999985    2.69000006
   12.42972279  132.86500549    4.90999985    2.69000006
   12.43305588  123.63099670    4.90999985    2.71000004
   12.43611145  131.44799805    4.90999985    2.71000004
   12.43944454  130.27999878    4.90999985    2.71000004
   12.44277763  126.80100250    4.90999985    2.71000004
   12.44583321  125.10900116    4.90999985    2.71000004
   12.44666672  116.51000214    4.90999985    2.71000004
   12.45222187  116.51000214    4.90999985    2.71000004
   12.45638847  121.63200378    4.90999985    2.71000004
   12.45972157  122.14199829    4.90999985    2.71000004
   12.46277714  123.10299683    4.90999985    2.71000004
   12.46611118  123.82700348    4.90999985    2.73000002
   12.46944427  124.73200226    4.90999985    2.71000004
   12.47249985  129.48399353    4.90999985    2.73000002
   12.47583294  126.22499847    4.90999985    2.71000004
   12.47916603  119.55300140    4.90999985    2.71000004
   12.47999954  115.41000366    4.90999985    2.71000004
   12.48277760  115.63500214    4.90999985    2.71000004
   12.48583317  119.86699677    4.90999985    2.71000004
   12.48916721  124.58200073    4.90999985    2.73000002
   12.49527836  124.58200073    4.90999985    2.71000004
   12.49916649  123.17500305    4.90999985    2.73000002
   12.50249958  126.38400269    4.90999985    2.73000002
   12.50583363  133.91900635    4.90999985    2.73000002
   12.50888920  122.28700256    4.90999985    2.71000004
   12.51222229  128.00700378    4.90999985    2.73000002
   12.51333332  121.46700287    4.90999985    2.71000004
   12.51611137  127.70999908    4.90999985    2.71000004
   12.51916599  125.82099915    4.90999985    2.73000002
   12.52250004  138.13999939    4.90999985    2.71000004
   12.52583313  132.21499634    4.90999985    2.75000000
   12.52888870  166.41000366    4.90999985    2.73000002
   12.53222179  127.38700104    4.90999985    2.71000004
   12.53805637  127.38700104    4.90999985    2.73000002
   12.54222298  124.18000031    4.90999985    2.73000002
   12.54527855  137.78700256    4.90999985    2.75000000
   12.54666710  126.99500275    4.90999985    2.73000002
   12.54916668  128.73500061    4.90999985    2.73000002
   12.55222225  117.24199677    4.90999985    2.73000002
   12.55555534  124.66500092    4.90999985    2.73000002
   12.55888939  125.21499634    4.90999985    2.73000002
   12.56194496  122.01899719    4.90999985    2.73000002
   12.56527805  117.36399841    4.90999985    2.73000002
   12.56833363  116.52799988    4.90999985    2.75000000
   12.57166672  120.56800079    4.90999985    2.73000002
   12.57499981  129.13999939    4.90999985    2.75000000
   12.58083344  129.13999939    4.90999985    2.75000000
   12.58500004  115.68499756    4.90999985    2.73000002
   12.58833313  120.61499786    4.90999985    2.75000000
   12.59138870  126.39800262    4.90999985    2.75000000
   12.59472179  120.38800049    4.90999985    2.75000000
   12.59805489  119.91500092    4.90999985    2.73000002
   12.60111141  120.84100342    4.90999985    2.73000002
   12.60444450  119.76300049    4.90999985    2.75000000
   12.60777855  131.88900757    4.90999985    2.75000000
   12.61083412  117.71900177    4.90999985    2.75000000
   12.61333370  115.50399780    4.90999985    2.75000000
   12.61472225  122.67900085    4.90999985    2.75000000
   12.61777782  117.93499756    4.90999985    2.75000000
   12.62361145  117.93499756    4.90999985    2.75000000
   12.62777805  126.30100250    4.90999985    2.75000000
   12.63111115  125.03600311    4.90999985    2.75000000
   12.63416672  117.95400238    4.90999985    2.75000000
   12.63749981  115.32800293    4.90999985    2.75000000
   12.64083290  116.83100128    4.90999985    2.75000000
   12.64388847  117.27100372    4.90999985    2.75000000
   12.64666653  117.50299835    4.90999985    2.75000000
   12.64777756  128.37399292    4.90999985    2.73000002
   12.65083313  123.41300201    4.90999985    2.75000000
   12.65416622  116.94499969    4.90999985    2.75000000
   12.65749931  123.03399658    4.90999985    2.75000000
   12.66055489  117.34899902    4.90999985    2.76999998
   12.66666698  117.34899902    4.90999985    2.75000000
   12.67055607  125.21199799    4.90999985    2.75000000
   12.67388916  146.61000061    4.90999985    2.75000000
   12.67722225  136.52000427    4.90999985    2.75000000
   12.68000031  124.42600250    4.90999985    2.75000000
   12.68083382  132.58299255    4.90999985    2.75000000
   12.68388939  137.11599731    4.90999985    2.76999998
   12.68722248  131.49800110    4.90999985    2.75000000
   12.69055557  125.25000000    4.90999985    2.75000000
   12.69361115  133.91299438    4.90999985    2.75000000
   12.69694424  120.20200348    4.90999985    2.75000000
   12.70027733  119.08899689    4.90999985    2.75000000
   12.70333290  131.78100586    4.90999985    2.75000000
   12.70944405  131.78100586    4.90999985    2.76999998
   12.71361065  133.96299744    4.90999985    2.76999998
   12.71666622  125.36000061    4.90999985    2.76999998
   12.71999931  123.39299774    4.90999985    2.75000000
   12.72333336  129.53100586    4.90999985    2.76999998
   12.72638798  121.09100342    4.90999985    2.75000000
   12.72972202  119.05999756    4.90999985    2.75000000
   12.73277760  123.09799957    4.90999985    2.75000000
   12.73611164  118.24500275    4.90999985    2.75000000
   12.73944473  123.65200043    4.90999985    2.76999998
   12.74250031  118.61100006    4.90999985    2.76999998
   12.74583340  117.66999817    4.90999985    2.76999998
   12.74666691  120.55000305    4.90999985    2.78999996
   12.76749992  120.55000305    4.90999985    2.76999998
   12.77166653  120.54299927    4.90999985    2.76999998
   12.77472210  121.97399902    4.90999985    2.76999998
   12.77805519  124.62300110    4.90999985    2.76999998
   12.77999973  122.72899628    4.90999985    2.76999998
   12.78166676  123.50399780    4.90999985    2.78999996
   12.78472233  121.82399750    4.90999985    2.76999998
   12.78805637  117.92400360    4.90999985    2.78999996
   12.79138947  124.05899811    4.90999985    2.76999998
   12.79444504  119.15499878    4.90999985    2.76999998
   12.79777813  123.88400269    4.90999985    2.76999998
   12.80111122  125.75599670    4.90999985    2.76999998
   12.80416679  132.97200012    4.90999985    2.76999998
   12.81027794  132.97200012    4.90999985    2.76999998
   12.81444454  136.45599365    4.90999985    2.78999996
   12.81750011  121.17099762    4.90999985    2.76999998
   12.82083321  127.40799713    4.90999985    2.78999996
   12.82388878  149.32499695    4.90999985    2.78999996
   12.82722187  184.14700317    4.90999985    2.76999998
   12.83055592  157.36700439    4.90999985    2.76999998
   12.83361053  148.20599365    4.90999985    2.78999996
   12.83694458  127.60800171    4.90999985    2.78999996
   12.84027767  161.15899658    4.90999985    2.78999996
   12.84333324  144.16900635    4.90999985    2.76999998
   12.84666634  159.16299438    4.90999985    2.78999996
   12.84722233  141.09800720    4.90999985    2.78999996
   12.85305595  141.09800720    4.90999985    2.78999996
   12.85722256  115.55899811    4.90999985    2.78999996
   12.86027813  126.04299927    4.90999985    2.78999996
   12.86361122  135.37600708    4.90999985    2.78999996
   12.86694431  122.10600281    4.90999985    2.78999996
   12.86999989  125.00499725    4.90999985    2.76999998
   12.87333393  120.86100006    4.90999985    2.78999996
   12.87666702  125.93599701    4.90999985    2.78999996
   12.87972260  120.01499939    4.90999985    2.76999998
   12.88055611  120.43099976    4.90999985    2.78999996
   12.88333321  124.19400024    4.90999985    2.78999996
