    HOUR (UT)   FLARE FACTOR    SKY TESTER    SUN TESTER
   12.81222248   -1.00000000   -1.00000000   -1.00000000
   12.85916710  134.43200684    1.34000003    2.53999996
   12.86222267  128.79499817    1.03999996    2.53999996
   12.86555576  123.69999695    1.11000001    2.53999996
   12.86888885  135.68499756    1.46000004    2.53999996
   12.87194443  130.61700439    1.60000002    2.51999998
   12.87888908  130.61700439    1.55999994    2.53999996
   12.88305569  129.22500610    1.30999994    2.53999996
   12.88638878  123.75499725    1.28999996    2.53999996
   12.88944435  135.12800598    1.09000003    2.53999996
   12.89194393  124.66999817    0.95999998    2.53999996
   12.89333344  135.58000183    0.86000001    2.53999996
   12.89638901  136.11700439    0.79000002    2.51999998
   12.89972210  127.05400085    0.80000001    2.53999996
   12.90305519  125.64399719    0.80000001    2.53999996
   12.90611076  129.96600342    0.83999997    2.53999996
   12.90944386  128.40499878    0.92000002    2.53999996
   12.91305542  123.28900146    1.00000000    2.53999996
   12.91611099  130.38200378    1.05999994    2.53999996
   12.92166710  130.38200378    1.21000004    2.53999996
   12.92583370  127.03199768    1.28999996    2.51999998
   12.92916679  133.80999756    1.28999996    2.51999998
   12.93249989  127.54000092    1.44000006    2.51999998
   12.93555546  125.63800049    1.58000004    2.53999996
   12.93888855  132.75399780    1.61000001    2.53999996
   12.94222260  126.93499756    1.64999998    2.51999998
   12.94527817  130.09500122    2.13000011    2.50000000
   12.94861126  127.44100189    2.32999992    2.50000000
   12.95166683  137.23500061    2.84999990    2.51999998
   12.95499992  128.38699341    3.07999992    2.50000000
   12.95833302  126.74900055    3.59999990    2.51999998
   12.95888901  133.13600159    3.59999990    2.51999998
   12.96472168  133.13600159    4.90999985    2.51999998
   12.96888828  136.47900391    4.90999985    2.51999998
   12.97194386  124.30699921    4.90999985    2.50000000
   12.97527695  124.27400208    4.90999985    2.51999998
   12.97833252  141.82600403    4.90999985    2.50000000
   12.98166656  160.90400696    4.90999985    2.36999989
   12.98500061  147.02000427    4.90999985    2.26999998
   12.98805618  145.64300537    4.90999985    2.39000010
   12.99138927  153.40299988    4.90999985    2.40000010
   12.99222279  136.61399841    4.90999985    2.40000010
   12.99499989  133.85600281    4.90999985    2.50000000
   12.99833393  133.43699646    4.90999985    2.50000000
   13.00138855  138.95300293    4.90999985    2.51999998
   13.00749969  138.95300293    4.90999985    2.44000006
   13.01166630  133.52000427    4.90999985    2.36999989
   13.01500034  138.58799744    4.90999985    2.39000010
   13.01805496  135.86000061    4.90999985    2.44000006
   13.02138901  126.79100037    4.90999985    2.57999992
   13.02444458  132.29600525    4.90999985    2.57999992
   13.02555561  132.36599731    4.90999985    2.55999994
   13.02805519  131.49800110    4.90999985    2.57999992
   13.03138828  136.83200073    4.90999985    2.55999994
   13.03444481  124.77300262    2.91000009    2.55999994
   13.03777790  136.88099670    0.55000001    2.55999994
   13.04111195  133.49400330    0.47999999    2.55999994
   13.04416752  135.24099731    0.50000000    2.53999996
   13.05027771  135.24099731    0.52999997    2.53999996
   13.05444431  123.71099854    0.56999999    2.53999996
   13.05777836  131.74400330    0.50000000    2.55999994
   13.05888939  130.45399475    0.47999999    2.55999994
   13.06111145  125.80599976    0.46000001    2.53999996
   13.06444454  129.73699951    0.44000000    2.53999996
   13.06750011  123.44799805    0.41999999    2.55999994
   13.07083321  126.89299774    0.36000001    2.55999994
   13.07416630  125.96299744    0.28000000    2.55999994
   13.07722187  128.56300354    0.28000000    2.55999994
   13.08055592  135.87399292    0.28000000    2.55999994
   13.08388901  127.37799835    0.28000000    2.55999994
   13.08694458  124.79900360    0.28000000    2.55999994
   13.09305477  124.79900360    0.28000000    2.55999994
   13.09722233  141.03399658    0.28000000    2.55999994
   13.10055637  130.77900696    0.28000000    2.55999994
   13.10361195  144.51300049    0.28000000    2.55999994
   13.10694504  134.17599487    0.28000000    2.55999994
   13.11027813  137.22300720    0.28000000    2.55999994
   13.11333370  121.73799896    0.25999999    2.55999994
   13.11666679  136.30400085    0.25999999    2.55999994
   13.11999989  137.85099792    0.25999999    2.57999992
   13.12305546  125.88200378    0.25999999    2.55999994
   13.12555599  128.35800171    0.25999999    2.55999994
   13.12666702  122.16999817    0.25999999    2.55999994
   13.13000011  126.86299896    0.25999999    2.55999994
   13.13611126  126.86299896    0.25999999    2.55999994
   13.14027786  125.12100220    0.25999999    2.55999994
   13.14333344  123.29299927    0.25999999    2.55999994
   13.14666653  133.11099243    0.25999999    2.57999992
   13.14972210  127.93699646    0.25999999    2.57999992
   13.15305519  126.88700104    0.25999999    2.55999994
   13.15638828  117.64299774    0.25999999    2.55999994
   13.15888882  118.66699982    0.25999999    2.55999994
   13.15972137  123.36000061    0.25999999    2.55999994
   13.16305542  118.70899963    0.25999999    2.55999994
   13.16638851  123.85199738    0.30000001    2.55999994
   13.16944504  128.60200500    0.75000000    2.57999992
   13.17277813  125.97299957    3.16000009    2.51999998
   13.17888927  125.97299957    4.90999985    2.48000002
   13.18305588  125.61799622    4.90999985    2.57999992
   13.18611145  131.90699768    4.90999985    2.53999996
   13.18944454  142.11900330    4.90999985    2.48000002
   13.19222260  124.88700104    4.90999985    2.39000010
   13.19305515  124.95800018    4.90999985    2.44000006
   13.19638920  125.34799957    4.90999985    2.55999994
   13.19944477  123.65000153    4.90999985    2.50000000
   13.20277786  126.61499786    4.90999985    2.57999992
   13.20611095  128.95399475    4.13999987    2.57999992
   13.20916653  120.96099854    0.76999998    2.57999992
   13.21249962  125.86199951    0.31999999    2.55999994
   13.21583271  122.25000000    0.25999999    2.57999992
   13.22166634  122.25000000    0.28000000    2.57999992
   13.22583294  126.49299622    0.28000000    2.57999992
   13.22916603  123.14399719    0.28000000    2.55999994
   13.23222160  124.24299622    0.28000000    2.55999994
   13.23555565  123.52300262    0.28000000    2.57999992
   13.23888874  124.13200378    0.28000000    2.57999992
   13.24194431  123.34300232    0.28000000    2.57999992
   13.24527836  125.38099670    0.28000000    2.57999992
   13.24833393  119.92400360    0.28000000    2.55999994
   13.25166702  126.59999847    0.28000000    2.57999992
   13.25500011  128.05400085    0.28000000    2.57999992
   13.25805569  120.68699646    0.30000001    2.57999992
   13.25888920  122.50399780    0.30000001    2.57999992
   13.26444435  122.50399780    0.30000001    2.57999992
   13.26861095  125.76699829    0.30000001    2.57999992
   13.27194405  122.76599884    0.30000001    2.57999992
   13.27499962  117.13899994    0.31999999    2.57999992
   13.27833271  115.95400238    0.36000001    2.59999990
   13.28166676  123.64499664    1.48000002    2.59999990
   13.28472233  118.25000000    1.61000001    2.50000000
   13.28805637  118.98600006    1.53999996    2.55999994
   13.29138947  119.76699829    1.39999998    2.59999990
   13.29222298  120.72799683    0.75000000    2.59999990
   13.29472256  124.19799805    0.64999998    2.59999990
   13.29805565  120.39199829    0.55000001    2.57999992
   13.30138874  118.20999908    0.41999999    2.59999990
   13.30749989  118.20999908    0.44000000    2.59999990
   13.31138897  119.53099823    0.52999997    2.59999990
   13.31472206  122.81800079    0.64999998    2.59999990
   13.31805515  117.68699646    0.75000000    2.59999990
   13.32111073  121.10399628    0.81999999    2.57999992
   13.32444477  118.55300140    0.88000000    2.59999990
   13.32555580  116.43299866    0.88000000    2.59999990
   13.32805538  122.95099640    0.88000000    2.59999990
   13.33138847  127.48999786    0.89999998    2.59999990
   13.33472157  116.69400024    0.95999998    2.59999990
   13.33777714  119.80699921    4.05999994    2.59999990
   13.34111118  115.28299713    4.90999985    2.59999990
   13.34444427  116.72000122    4.90999985    2.59999990
   13.35027790  116.72000122    4.90999985    2.59999990
   13.35444450  120.46700287    4.90999985    2.55999994
   13.35750008  122.39399719    4.90999985    2.55999994
   13.35888958  132.40199280    4.90999985    2.55999994
   13.36111164  144.67399597    4.90999985    2.40000010
   13.36444473  155.83799744    4.90999985    2.44000006
   13.36777782  136.47900391    4.90999985    2.39000010
   13.37083340  137.56500244    4.90999985    2.40000010
   13.37416649  133.50700378    4.90999985    2.48000002
   13.37722206  140.99000549    4.90999985    2.40000010
   13.38055611  139.51499939    4.90999985    2.48000002
   13.38388920  143.39399719    4.90999985    2.39000010
   13.38694477  152.83599854    4.90999985    2.36999989
   13.39305496  152.83599854    4.90999985    2.36999989
   13.39722252  143.43299866    4.90999985    2.40000010
   13.40055561  138.74499512    4.90999985    2.40000010
   13.40361118  146.23399353    4.90999985    2.44000006
   13.40694427  130.30599976    4.90999985    2.40000010
   13.40999985  117.77200317    4.90999985    2.51999998
   13.41333294  123.16699982    4.90999985    2.61999989
   13.41666698  132.20599365    4.90999985    2.59999990
   13.41972256  123.26200104    4.90999985    2.57999992
   13.42305565  116.61499786    4.44999981    2.55999994
   13.42555618  118.75099945    3.20000005    2.61999989
   13.42666721  119.89299774    2.34999990    2.61999989
   13.43000031  122.94799805    0.76999998    2.61999989
   13.43583298  122.94799805    0.56999999    2.59999990
   13.44000053  124.66999817    0.52999997    2.59999990
   13.44333363  123.06300354    0.47999999    2.61999989
   13.44638920  123.83899689    0.47999999    2.61999989
   13.44972229  122.54799652    0.47999999    2.61999989
   13.45305538  119.16899872    0.47999999    2.59999990
   13.45638847  121.03900146    0.47999999    2.61999989
   13.45888901  117.71399689    0.47999999    2.59999990
   13.45972157  123.87899780    0.47999999    2.59999990
   13.46305561  118.82299805    0.50000000    2.59999990
   13.46638870  114.76499939    0.55000001    2.59999990
   13.46944427  119.38099670    0.56999999    2.59999990
   13.47277737  121.45999908    0.58999997    2.59999990
   13.47888851  121.45999908    0.61000001    2.59999990
   13.48277760  115.27400208    0.63000000    2.59999990
   13.48611164  113.22200012    0.63000000    2.59999990
   13.48944473  118.85399628    0.63000000    2.61999989
   13.49222279  121.02100372    0.64999998    2.59999990
   13.49277782  113.43699646    0.64999998    2.59999990
   13.49611092  117.80699921    0.67000002    2.59999990
   13.49944496  121.28500366    0.69000000    2.61999989
   13.50249958  123.58999634    0.69000000    2.59999990
   13.50583363  119.97100067    0.69000000    2.59999990
   13.50888920  121.60199738    0.67000002    2.59999990
   13.51222229  121.87899780    0.67000002    2.59999990
   13.51555538  119.73699951    0.64999998    2.61999989
   13.52166653  119.73699951    0.58999997    2.61999989
   13.52583313  117.01699829    0.55000001    2.61999989
   13.52888870  122.25000000    0.51999998    2.61999989
   13.53222179  118.14600372    0.50000000    2.61999989
   13.53555584  123.41500092    0.50000000    2.61999989
   13.53861141  120.15100098    0.50000000    2.61999989
   13.54194450  118.72899628    0.51999998    2.61999989
   13.54527855  116.36699677    0.51999998    2.61999989
   13.54833412  110.23699951    0.61000001    2.61999989
   13.55166721  113.63800049    0.67000002    2.61999989
   13.55500031  114.14600372    0.75000000    2.64000010
   13.55805588  115.80599976    1.39999998    2.59999990
   13.55888939  119.52400208    1.94000006    2.57999992
   13.56444454  119.52400208    2.39000010    2.59999990
   13.56861115  121.11699677    2.86999989    2.59999990
   13.57194424  135.46299744    3.39000010    2.55999994
   13.57499981  113.12400055    4.59999990    2.55999994
   13.57833290  122.99500275    4.90999985    2.51999998
   13.58138847  124.27899933    4.90999985    2.48000002
   13.58472157  113.48899841    4.90999985    2.51999998
   13.58805561  119.81300354    4.90999985    2.55999994
   13.59111118  122.97799683    4.90999985    2.53999996
   13.59222221  132.64500427    4.90999985    2.53999996
   13.59472179  121.05899811    4.90999985    2.51999998
   13.59805489  128.38099670    4.90999985    2.51999998
   13.60138893  122.35600281    4.90999985    2.48000002
   13.60722256  122.35600281    4.90999985    2.46000004
   13.61138916  127.05599976    4.90999985    2.17000008
   13.61472225  130.75100708    4.90999985    2.21000004
   13.61805534  186.99800110    4.90999985    2.34999990
   13.62111092  128.94599915    4.90999985    2.26999998
   13.62444496  183.58099365    4.90999985    2.44000006
   13.62555599  210.11300659    4.90999985    2.39000010
   13.62805557  212.75999451    4.90999985    2.15000010
   13.63138866  189.89399719    4.90999985    1.94000006
   13.63472176  204.17999268    4.90999985    1.76999998
   13.63777733  313.41900635    4.90999985    2.00000000
   13.64111137  251.60600281    4.90999985    1.94000006
   13.64444447  130.33200073    4.90999985    1.80999994
   13.65027714  130.33200073    4.90999985    2.34999990
   13.65416622  229.40400696    4.90999985    1.91999996
   13.65749931  188.70399475    4.90999985    2.11999989
   13.65888882  139.58700562    4.90999985    2.15000010
   13.66111088  148.13600159    4.90999985    2.32999992
   13.66444397  132.46099854    4.90999985    2.46000004
   13.66777802  143.85499573    4.90999985    2.48000002
   13.67083359  135.86900330    4.90999985    2.48000002
   13.67416668  134.67500305    4.90999985    2.46000004
   13.67750072  135.35400391    4.90999985    2.44000006
   13.68055630  138.46899414    4.90999985    2.48000002
   13.68388939  135.64199829    4.90999985    2.46000004
   13.68694496  131.22799683    4.90999985    2.44000006
   13.69305515  131.22799683    4.90999985    2.40000010
   13.69722271  165.13099670    4.90999985    2.42000008
   13.70027733  138.92599487    4.90999985    2.46000004
   13.70361137  144.81300354    4.90999985    2.46000004
   13.70694447  142.45899963    4.90999985    2.44000006
   13.71000004  175.71699524    4.90999985    2.42000008
   13.71333313  147.02900696    4.90999985    2.40000010
   13.71638870  165.84899902    4.90999985    2.40000010
   13.71972179  161.78599548    4.90999985    2.42000008
   13.72305489  143.74000549    4.90999985    2.44000006
   13.72555542  170.83200073    4.90999985    2.42000008
   13.72638798  163.09199524    4.90999985    2.44000006
   13.72972202  174.13600159    4.90999985    2.44000006
   13.73583317  174.13600159    4.90999985    2.42000008
   13.74000072  172.54200745    4.90999985    2.40000010
   13.74333382  195.92900085    4.90999985    2.36999989
   13.74638939  183.06199646    4.90999985    2.39000010
   13.74972248  160.02799988    4.90999985    2.28999996
   13.75277805  149.56399536    4.90999985    2.39000010
   13.75611115  138.74600220    4.90999985    2.40000010
   13.75888920  143.55400085    4.90999985    2.42000008
   13.76000023  150.51800537    4.90999985    2.42000008
   13.76305580  154.97500610    4.90999985    2.34999990
   13.76638889  164.33099365    4.90999985    2.36999989
   13.76944447  145.32200623    4.90999985    2.23000002
   13.77277756  186.82099915    4.90999985    2.25000000
   13.77861118  186.82099915    4.90999985    2.25000000
   13.78277779  187.52000427    4.90999985    2.17000008
   13.78611183  200.20199585    4.90999985    2.13000011
   13.78944492  203.31799316    4.90999985    2.05999994
   13.79222298  185.74400330    4.90999985    2.05999994
   13.79305553  214.55900574    4.90999985    2.05999994
   13.79611111  183.43099976    4.90999985    2.11999989
   13.79944515  182.75100708    4.90999985    2.19000006
   13.80249977  208.75399780    4.90999985    2.15000010
   13.80583382  166.88600159    4.90999985    2.11999989
   13.80916691  147.30400085    4.90999985    2.23000002
   13.81222248  129.89900208    4.90999985    2.36999989
   13.81555557  138.82299805    4.90999985    2.50000000
   13.82166672  138.82299805    4.90999985    2.39000010
   13.82555580  149.24899292    4.90999985    2.28999996
   13.82888889  159.26699829    4.90999985    2.23000002
   13.83222198  165.17700195    4.90999985    2.21000004
   13.83527756  152.94900513    4.90999985    2.03999996
   13.83861065  190.18499756    4.90999985    2.21000004
   13.84194374  185.18800354    4.90999985    2.03999996
   13.84499931  188.46200562    4.90999985    2.11999989
   13.84833336  193.18299866    4.90999985    2.09999990
   13.85138893  241.73199463    4.90999985    2.13000011
   13.85472298  286.53900146    4.90999985    2.00000000
   13.85805607  138.42399597    4.90999985    2.09999990
   13.85888958  147.43899536    4.90999985    2.17000008
   13.87944412  147.43899536    4.90999985    2.53999996
   13.88361073  129.92700195    4.90999985    2.53999996
   13.88694477  130.34700012    4.90999985    2.53999996
   13.89027786  125.24500275    4.90999985    2.51999998
   13.89222240  118.86499786    4.90999985    2.53999996
   13.89388847  127.93499756    4.90999985    2.55999994
   13.89694405  132.68499756    4.90999985    2.55999994
   13.90027714  132.75700378    4.90999985    2.53999996
   13.90333271  140.32699585    4.90999985    2.50000000
   13.90666676  128.11599731    4.90999985    2.50000000
   13.90999985  138.06700134    4.90999985    2.57999992
   13.91305542  140.57899475    4.90999985    2.55999994
   13.91638851  131.69200134    4.90999985    2.46000004
   13.92222214  131.69200134    4.90999985    2.61999989
   13.92638874  129.05599976    4.80000019    2.61999989
   13.92972279  135.32499695    4.40999985    2.59999990
   13.93277836  140.78399658    4.51000023    2.48000002
   13.93611145  138.74699402    4.61999989    2.61999989
   13.93944454  140.48199463    4.51000023    2.64000010
   13.94250011  137.24800110    4.17999983    2.64000010
   13.94583321  143.61399841    4.57999992    2.61999989
   13.94916630  139.21800232    4.57999992    2.59999990
   13.95222187  140.21200562    4.53999996    2.57999992
   13.95555496  139.16999817    4.48999977    2.59999990
   13.95861053  133.63600159    4.80000019    2.59999990
   13.95916653  134.55299377    4.88999987    2.59999990
   13.96527767  134.55299377    4.90999985    2.53999996
   13.96916580  140.02999878    4.90999985    2.51999998
   13.97249985  137.56300354    4.90999985    2.48000002
   13.97583294  138.74400330    4.90999985    2.51999998
   13.97888851  132.24400330    4.90999985    2.51999998
   13.98222160  134.42900085    4.90999985    2.53999996
   13.98555565  129.49800110    4.90999985    2.51999998
   13.98861122  187.97599792    4.90999985    2.53999996
   13.99194431  134.02299500    4.90999985    2.55999994
   13.99250031  126.76799774    4.90999985    2.55999994
   13.99555588  134.22200012    4.90999985    2.55999994
   13.99888897  129.16299438    4.90999985    2.57999992
