    HOUR (UT)   FLARE FACTOR    SKY TESTER    SUN TESTER
   11.94805527   -1.00000000   -1.00000000   -1.00000000
   12.01999950  163.15699768    4.90999985    2.11999989
   12.02333355  160.63499451    4.90999985    2.11999989
   12.02638817  162.85400391    4.90999985    2.11999989
   12.02972221  156.42799377    4.90999985    2.11999989
   12.03388977  150.68400574    4.90999985    2.11999989
   12.04027843  150.68400574    4.90999985    2.11999989
   12.04444504  168.79200745    4.90999985    2.11999989
   12.04750061  171.79800415    4.90999985    2.13000011
   12.05083370  158.26300049    4.90999985    2.13000011
   12.05333328  151.25700378    4.90999985    2.13000011
   12.05444431  142.93499756    4.90999985    2.13000011
   12.05749989  144.20599365    4.90999985    2.13000011
   12.06083393  141.29299927    4.90999985    2.13000011
   12.06388950  144.22700500    4.90999985    2.13000011
   12.06722260  143.99800110    4.90999985    2.13000011
   12.07055569  148.84899902    4.90999985    2.13000011
   12.07361126  140.38400269    4.90999985    2.15000010
   12.08555508  149.08000183    0.00000000    0.00000000
   12.08972168  149.08000183    4.90999985    2.15000010
   12.09388828  151.99600220    4.90999985    2.15000010
   12.09722233  138.00300598    4.90999985    2.17000008
   12.10027790  146.28700256    4.90999985    2.17000008
   12.10361195  138.19200134    4.90999985    2.17000008
   12.10694504  143.78999329    4.90999985    2.17000008
   12.11000061  140.26400757    4.90999985    2.17000008
   12.11333370  140.65899658    4.90999985    2.17000008
   12.11666679  138.39399719    4.90999985    2.17000008
   12.11972237  138.71600342    4.90999985    2.17000008
   12.12083340  138.67500305    4.90999985    2.17000008
   12.12333393  146.91099548    4.90999985    2.17000008
   12.12666702  140.86500549    4.90999985    2.17000008
   12.13277817  140.86500549    4.90999985    2.19000006
   12.13666630  141.32200623    4.90999985    2.19000006
   12.14000034  134.83200073    4.90999985    2.19000006
   12.14333344  135.56799316    4.90999985    2.19000006
   12.14638901  134.38999939    4.90999985    2.19000006
   12.14972210  137.88699341    4.90999985    2.19000006
   12.15305519  136.47000122    4.90999985    2.19000006
   12.15416622  143.57600403    4.90999985    2.19000006
   12.15638828  137.67199707    4.90999985    2.19000006
   12.15972137  139.46099854    4.90999985    2.19000006
   12.16305542  139.46800232    4.90999985    2.21000004
   12.17583370  146.20199585    0.00000000    0.00000000
   12.18000031  146.20199585    4.90999985    2.21000004
   12.18416691  141.83500671    4.90999985    2.21000004
   12.18722248  139.40800476    4.90999985    2.21000004
   12.19055557  145.19099426    4.90999985    2.21000004
   12.20027733  134.10200500    4.90999985    2.21000004
   12.20305538  131.08599854    4.90999985    2.21000004
   12.20638847  136.39700317    4.90999985    2.21000004
   12.20944405  138.43699646    4.90999985    2.21000004
   12.21277714  141.45700073    4.90999985    2.23000002
   12.21611118  140.52000427    4.90999985    2.23000002
   12.21916580  128.56599426    4.90999985    2.21000004
   12.22249985  136.30700684    4.90999985    2.23000002
   12.22805500  136.30700684    4.90999985    2.23000002
   12.23222160  138.13800049    4.90999985    2.23000002
   12.23666668  149.28599548    4.90999985    2.23000002
   12.24000072  147.30200195    4.90999985    2.23000002
   12.24305534  137.67399597    4.90999985    2.23000002
   12.24638939  144.68699646    4.90999985    2.23000002
   12.24972248  144.01899719    4.90999985    2.23000002
   12.25305557  142.19999695    4.90999985    2.23000002
   12.25611115  153.46499634    4.90999985    2.25000000
   12.25888920  143.08000183    4.90999985    2.23000002
   12.26000023  155.44900513    4.90999985    2.23000002
   12.26305580  137.67599487    4.90999985    2.23000002
   12.26638889  138.23300171    4.90999985    2.23000002
   12.27083302  138.23300171    4.90999985    2.23000002
   12.27499962  138.32400513    4.90999985    2.23000002
   12.27805519  140.48399353    4.90999985    2.25000000
   12.28138828  148.75700378    4.90999985    2.25000000
   12.28472233  152.43200684    4.90999985    2.25000000
   12.28805637  150.88699341    4.90999985    2.25000000
   12.29111195  145.42900085    4.90999985    2.23000002
   12.29222298  135.14399719    4.90999985    2.25000000
   12.29500008  143.21400452    4.90999985    2.23000002
   12.29805565  142.22300720    4.90999985    2.23000002
   12.30138874  142.57200623    4.90999985    2.23000002
   12.30472279  145.01400757    4.90999985    2.25000000
   12.30777836  136.77299500    4.90999985    2.25000000
   12.31361103  136.77299500    4.90999985    2.25000000
   12.31777763  180.17500305    4.90999985    2.25000000
   12.32111073  157.18899536    4.90999985    2.25000000
   12.32416630  165.57699585    4.90999985    2.25000000
   12.32583332  172.13099670    4.90999985    2.25000000
   12.32777786  170.10800171    4.90999985    2.25000000
   12.33111095  173.52200317    4.90999985    2.25000000
   12.33444405  176.44900513    4.90999985    2.25000000
   12.33777714  185.61000061    4.90999985    2.25000000
   12.34083271  180.87699890    4.90999985    2.25000000
   12.34416676  175.12399292    4.90999985    2.25000000
   12.34749985  177.05700684    4.90999985    2.25000000
   12.35055637  155.38099670    4.90999985    2.25000000
   12.35638905  155.38099670    4.90999985    2.26999998
   12.36055565  177.30000305    4.90999985    2.26999998
   12.36388969  171.04499817    4.90999985    2.26999998
   12.36722279  181.51100159    4.90999985    2.26999998
   12.37138939  185.09599304    4.90999985    2.26999998
   12.37472248  182.17799377    4.90999985    2.26999998
   12.37777805  193.81500244    4.90999985    2.26999998
   12.38111115  188.86000061    4.90999985    2.26999998
   12.38444424  200.91299438    4.90999985    2.26999998
   12.38749981  170.84800720    4.90999985    2.28999996
   12.39083290  180.00900269    4.90999985    2.28999996
   12.39249992  171.71099854    4.90999985    2.28999996
   12.39444447  142.49800110    4.90999985    2.28999996
   12.39944458  142.49800110    4.90999985    2.28999996
   12.40361118  159.89799500    4.90999985    2.28999996
   12.40666676  168.58399963    4.90999985    2.28999996
   12.40999985  183.60099792    4.90999985    2.28999996
   12.41333294  167.49499512    4.90999985    2.28999996
   12.42555618  176.25399780    0.00000000    0.00000000
   12.42611122  152.74899292    4.90999985    2.28999996
   12.42916679  170.00500488    4.90999985    2.28999996
   12.43222237  167.48300171    4.90999985    2.30999994
   12.43555546  141.49099731    4.90999985    2.28999996
   12.44305515  141.49099731    4.90999985    2.28999996
   12.44722271  145.58399963    4.90999985    2.28999996
   12.45027733  135.79800415    4.90999985    2.30999994
   12.45361137  147.79400635    4.90999985    2.30999994
   12.45694447  134.57699585    4.90999985    2.30999994
   12.45944405  141.02099609    4.90999985    2.30999994
   12.46055508  145.40199280    4.90999985    2.30999994
   12.46388912  138.68899536    4.90999985    2.30999994
   12.46722221  134.89199829    4.90999985    2.32999992
   12.47027779  129.40499878    4.90999985    2.32999992
   12.47361088  131.55499268    4.90999985    2.32999992
   12.47666645  147.68200684    4.90999985    2.30999994
   12.47999954  151.05499268    4.90999985    2.32999992
   12.48500061  151.05499268    4.90999985    2.30999994
   12.48916721  148.32899475    4.90999985    2.32999992
   12.49250031  144.90199280    4.90999985    2.32999992
   12.49277782  139.54899597    4.90999985    2.32999992
   12.49583340  140.88999939    4.90999985    2.32999992
   12.49916649  131.30599976    4.90999985    2.32999992
   12.50222206  140.05900574    4.90999985    2.32999992
   12.51444435  126.05500031    0.00000000    0.00000000
   12.51777744  126.03099823    4.90999985    2.32999992
   12.52083302  129.79100037    4.90999985    2.32999992
   12.52416611  141.23699951    4.90999985    2.32999992
   12.52833271  141.23699951    4.90999985    2.32999992
   12.54111195  136.06700134    0.00000000    0.00000000
   12.54444504  125.49199677    4.90999985    2.34999990
   12.54750061  121.95300293    4.90999985    2.32999992
   12.55083370  149.04600525    4.90999985    2.32999992
   12.55416679  135.73599243    4.90999985    2.34999990
   12.55722237  128.70799255    4.90999985    2.32999992
   12.56055546  130.85600281    4.90999985    2.32999992
   12.56333351  140.73100281    4.90999985    2.34999990
   12.56416702  138.83200073    4.90999985    2.34999990
   12.56750011  124.40699768    4.90999985    2.34999990
   12.57166672  124.40699768    4.90999985    2.34999990
   12.57555580  128.92300415    4.90999985    2.34999990
   12.57888889  124.81500244    4.90999985    2.34999990
   12.58222198  128.07299805    4.90999985    2.34999990
   12.58527756  121.37699890    4.90999985    2.34999990
   12.58861065  125.61000061    4.90999985    2.34999990
   12.59194374  125.93699646    4.90999985    2.34999990
   12.59499931  128.42300415    4.90999985    2.34999990
   12.59666634  126.80999756    4.90999985    2.34999990
   12.59861088  121.65599823    4.90999985    2.34999990
   12.60194492  126.07199860    4.90999985    2.36999989
   12.60500050  131.17500305    4.90999985    2.36999989
   12.60833359  127.14499664    4.90999985    2.36999989
   12.61444473  127.14499664    4.90999985    2.34999990
   12.61861134  129.07499695    4.90999985    2.34999990
   12.62166691  129.30499268    4.90999985    2.34999990
   12.62500000  122.41799927    4.90999985    2.36999989
   12.62833309  122.05999756    4.90999985    2.34999990
   12.63027763  128.23399353    4.90999985    2.36999989
   12.63194466  121.50199890    4.90999985    2.36999989
   12.63527775  147.45599365    4.90999985    2.36999989
   12.63833332  143.28999329    4.90999985    2.36999989
   12.64166641  122.75299835    4.90999985    2.36999989
   12.64472198  149.21000671    4.90999985    2.34999990
   12.64805508  122.39900208    4.90999985    2.36999989
   12.65138817  120.45999908    4.90999985    2.34999990
   12.65722179  120.45999908    4.90999985    2.36999989
   12.66138840  130.92700195    4.90999985    2.34999990
   12.66361046  130.53799438    4.90999985    2.34999990
   12.66499996  124.55200195    4.90999985    2.36999989
   12.67666721  130.71600342    0.00000000    0.00000000
   12.68000031  135.22599792    4.90999985    2.36999989
   12.68333340  130.43099976    4.90999985    2.34999990
   12.68638897  128.70199585    4.90999985    2.36999989
   12.68972206  139.46600342    4.90999985    2.34999990
   12.69305515  123.83399963    4.90999985    2.36999989
   12.69611073  127.52300262    4.90999985    2.34999990
   12.69694424  126.09100342    4.90999985    2.34999990
   12.69972229  122.24500275    4.90999985    2.36999989
   12.70527744  122.24500275    4.90999985    2.36999989
   12.70944405  121.40200043    4.90999985    2.36999989
   12.72138882  125.33799744    0.00000000    0.00000000
   12.72472191  124.12799835    4.90999985    2.39000010
   12.72777748  126.49800110    4.90999985    2.39000010
   12.73111057  127.32599640    4.90999985    2.39000010
   12.73416710  124.90499878    4.90999985    2.39000010
   12.73694515  127.22299957    4.90999985    2.39000010
   12.73805618  127.23500061    4.90999985    2.39000010
   12.74111176  125.69400024    4.90999985    2.39000010
   12.74444485  131.98500061    4.90999985    2.39000010
   12.75777817  131.98500061    4.90999985    2.39000010
   12.76194477  124.76100159    4.90999985    2.39000010
   12.76527786  123.34500122    4.90999985    2.39000010
   12.76861095  127.59999847    4.90999985    2.39000010
   12.77166653  127.09400177    4.90999985    2.39000010
   12.77361107  129.81399536    4.90999985    2.39000010
   12.77555561  126.14600372    4.90999985    2.39000010
   12.77861118  124.36499786    4.90999985    2.39000010
   12.78194427  127.02200317    4.90999985    2.39000010
   12.78500080  122.14299774    4.90999985    2.39000010
   12.79194450  122.14299774    4.90999985    2.40000010
   12.79611111  126.83000183    4.90999985    2.39000010
   12.79944515  125.65499878    4.90999985    2.40000010
   12.80277824  123.34700012    4.90999985    2.40000010
   12.80583382  126.14199829    4.90999985    2.39000010
   12.80694485  121.36799622    4.90999985    2.40000010
   12.80972195  123.03500366    4.90999985    2.40000010
   12.81277752  128.55099487    4.90999985    2.40000010
   12.81611156  124.00800323    4.90999985    2.40000010
   12.81944466  122.73799896    4.90999985    2.40000010
   12.82250023  126.58799744    4.90999985    2.40000010
   12.82583332  124.58899689    4.90999985    2.40000010
   12.82888889  126.57900238    4.90999985    2.40000010
   12.83472157  126.57900238    4.90999985    2.40000010
   12.84777737  124.56500244    0.00000000    0.00000000
   12.84833336  127.85700226    4.90999985    2.40000010
   12.85138893  124.91100311    4.90999985    2.40000010
   12.85472298  122.32099915    4.90999985    2.40000010
   12.85805607  122.86799622    4.90999985    2.44000006
   12.86222267  128.05099487    4.90999985    2.44000006
   12.86555576  123.94499969    4.90999985    2.44000006
   12.86861134  126.09500122    4.90999985    2.44000006
   12.87194443  156.08799744    4.90999985    2.32999992
   12.87750053  156.08799744    4.90999985    1.44000006
   12.88166714  131.64199829    4.90999985    2.21000004
   12.88222218  129.76400757    4.90999985    2.39000010
   12.88527775  144.95199585    4.90999985    2.32999992
   12.88861084  258.05099487    4.90999985    1.85000002
   12.89194393  259.58898926    4.90999985    1.51999998
   12.89888859   -1.00000000    4.90999985    0.61000001
   12.90222168   84.73570251    4.90999985    0.83999997
   12.91444397  165.07299805    0.00000000    0.00000000
   12.91555500  137.89999390    4.90999985    2.01999998
   12.91805553  131.27900696    4.90999985    2.23000002
   12.92388916  131.27900696    4.90999985    2.48000002
   12.93666649  132.27200317    0.00000000    0.00000000
   12.94000053  134.41799927    4.90999985    2.48000002
   12.94333363  136.47700500    4.90999985    2.32999992
   12.94638920  127.58200073    4.90999985    2.30999994
   12.94972229  124.91100311    4.90999985    2.50000000
   12.95249939  130.47700500    4.90999985    2.50000000
   12.95333290  131.74600220    4.90999985    2.50000000
   12.95666695  128.60400391    4.90999985    2.48000002
   12.96000004  126.30200195    4.90999985    2.48000002
   12.96805477  126.30200195    4.90999985    2.48000002
   12.97222137  135.42599487    4.90999985    2.46000004
   12.97555542  121.88500214    4.90999985    2.36999989
   12.97861099  102.46299744    4.90999985    2.51999998
   12.98194408   -1.00000000    4.90999985    1.94000006
   12.98500061   -1.00000000    4.90999985    0.34000000
   12.98861122   -1.00000000    4.90999985    0.15000001
   12.99194431   -1.00000000    4.90999985    0.20999999
   12.99499989   -1.00000000    4.90999985    0.13000000
   12.99833393   -1.00000000    4.90999985    0.11000000
   13.00138855   -1.00000000    4.90999985    0.09000000
   13.00472260   -1.00000000    4.90999985    0.09000000
   13.05861092  134.27099609    4.90999985    2.46000004
   13.06166649  140.43299866    4.90999985    2.44000006
   13.06500053  144.14199829    4.90999985    2.44000006
   13.06805515  132.50599670    4.90999985    2.46000004
   13.07138920  142.57899475    4.90999985    2.44000006
   13.07472229  139.99499512    4.90999985    2.44000006
   13.07888889  139.99499512    4.90999985    2.48000002
   13.08361053  140.07499695    4.90999985    2.46000004
   13.08666611  142.07899475    4.90999985    2.46000004
   13.09000015  149.12699890    4.90999985    2.46000004
   13.09194374  143.77799988    4.90999985    2.48000002
   13.09472179  135.16200256    4.90999985    2.50000000
   13.09805489  129.51600647    4.90999985    2.51999998
   13.10111141  138.01899719    4.90999985    2.50000000
   13.10444450  123.59600067    4.90999985    2.51999998
   13.10777855  129.64599609    4.90999985    2.51999998
   13.11083412  138.35899353    4.90999985    2.51999998
   13.11416721  146.52400208    4.90999985    2.50000000
   13.11750031  136.80400085    4.90999985    2.46000004
   13.12222195  136.80400085    4.90999985    2.48000002
   13.12694454  124.30300140    4.90999985    2.50000000
   13.13000011  127.21199799    4.90999985    2.55999994
   13.13333321  165.72099304    4.90999985    2.42000008
   13.13666630  141.00999451    4.90999985    1.53999996
   13.13972187  120.02500153    4.90999985    2.48000002
   13.14305496  130.00300598    4.90999985    2.42000008
   13.14611053  140.91900635    4.90999985    2.51999998
   13.14944458  124.24299622    4.90999985    2.50000000
   13.15277767  126.30699921    4.90999985    2.48000002
   13.15583324  129.22099304    4.90999985    2.48000002
   13.15861034  123.65599823    4.90999985    2.48000002
   13.15944386  128.03199768    4.90999985    2.48000002
   13.16527748  128.03199768    4.90999985    2.46000004
   13.16944504  146.86900330    4.90999985    2.46000004
   13.17250061  126.75800323    4.90999985    2.48000002
   13.17583370  124.30000305    4.90999985    2.48000002
   13.17916679  126.45500183    4.90999985    2.48000002
   13.19111156  115.98200226    0.00000000    0.00000000
   13.19444466  148.43600464    4.90999985    2.23000002
   13.19750023  158.07899475    4.90999985    2.50000000
   13.20333290  137.95199585    4.90999985    2.50000000
   13.20805550  137.95199585    4.90999985    1.66999996
   13.21222210  136.20300293    4.90999985    2.40000010
   13.21694374  133.32899475    4.90999985    2.55999994
   13.21999931  132.67300415    4.90999985    2.46000004
   13.22333336  133.08900452    4.90999985    2.25000000
   13.22527695  141.52699280    4.90999985    2.36999989
   13.22805500  131.93200684    4.90999985    2.46000004
   13.23138809  139.36999512    4.90999985    2.51999998
   13.23444462  123.51899719    4.90999985    2.30999994
   13.24666691  134.11099243    0.00000000    0.00000000
   13.25000000  208.59899902    4.90999985    0.75000000
   13.25611115  208.59899902    4.90999985    1.88000000
   13.26027775  131.18600464    4.90999985    2.46000004
   13.27138901  133.03999329    4.90999985    2.50000000
   13.27277756  131.74299622    4.90999985    2.50000000
   13.27611065  131.79200745    4.90999985    2.48000002
   13.27944374  134.13999939    4.90999985    2.50000000
   13.28249931  137.65800476    4.90999985    2.46000004
   13.28583336  135.61999512    4.90999985    2.50000000
   13.28888893  139.39199829    4.90999985    2.48000002
   13.29222298  130.27600098    4.90999985    2.48000002
   13.29888916  130.27600098    4.90999985    2.50000000
   13.30305576  135.97000122    4.90999985    2.51999998
   13.30638885  133.36900330    4.90999985    2.53999996
   13.30944443  138.07000732    4.90999985    2.55999994
   13.31277752  142.91299438    4.90999985    2.46000004
   13.31611156  176.17399597    4.90999985    1.86000001
   13.31916618   -1.00000000    4.90999985    1.60000002
   13.32250023   -1.00000000    4.90999985    1.05999994
   13.32583332   -1.00000000    4.90999985    0.81999999
   13.32888889   -1.00000000    4.90999985    0.76999998
   13.33249950  157.21000671    4.90999985    0.94000000
   13.33583260  128.76800537    4.90999985    2.55999994
