    HOUR (UT)   FLARE FACTOR    SKY TESTER    SUN TESTER
   13.78444481   -1.00000000   -1.00000000   -1.00000000
   13.81999969  120.73100281    4.90999985    2.23000002
   13.82333374  120.36000061    4.90999985    2.26999998
   13.82666683  123.51399994    4.90999985    2.28999996
   13.82972240  124.64499664    4.90999985    2.30999994
   13.83305550  133.83500671    4.90999985    2.30999994
   13.83638859  124.87100220    4.90999985    2.25000000
   13.84055519  124.87100220    4.90999985    2.28999996
   13.84444427  122.24600220    4.90999985    2.40000010
   13.84777737  122.40200043    4.90999985    2.42000008
   13.85111141  114.26399994    4.90999985    2.44000006
   13.85333347  124.10099792    4.90999985    2.42000008
   13.85472298  133.64700317    4.90999985    2.40000010
   13.85805607  121.00700378    4.90999985    2.36999989
   13.86111164  122.24400330    4.90999985    2.39000010
   13.86444473  116.84300232    4.90999985    2.36999989
   13.86750031  123.83200073    4.90999985    2.32999992
   13.87083340  124.24500275    4.90999985    2.32999992
   13.87416649  119.69999695    4.90999985    2.30999994
   13.87722206  129.08599854    4.90999985    2.30999994
   13.88333321  129.08599854    4.90999985    2.28999996
   13.88749981  127.44799805    4.90999985    2.30999994
   13.89055538  116.90799713    4.90999985    2.30999994
   13.89388847  125.02799988    4.90999985    2.30999994
   13.89722252  115.73899841    4.90999985    2.32999992
   13.90027714  123.47899628    4.90999985    2.39000010
   13.90361118  126.04399872    4.90999985    2.36999989
   13.90666676  124.01999664    4.90999985    2.32999992
   13.90999985  123.79799652    4.90999985    2.32999992
   13.91333294  122.97899628    4.90999985    2.30999994
   13.91638851  127.62000275    4.90999985    2.26999998
   13.91972256  122.79299927    4.90999985    2.25000000
   13.92027855  123.22000122    4.90999985    2.25000000
   13.92611122  123.22000122    4.90999985    2.39000010
   13.93027782  124.78600311    4.90999985    2.42000008
   13.93361092  116.53500366    4.90999985    2.40000010
   13.93666649  133.84300232    4.90999985    2.40000010
   13.94000053  123.63700104    4.90999985    2.36999989
   13.94305515  131.80200195    4.90999985    2.34999990
   13.94638920  124.41400146    4.90999985    2.34999990
   13.94972229  119.65299988    4.90999985    2.40000010
   13.95277786  121.86299896    4.90999985    2.44000006
   13.95361137  120.00399780    4.90999985    2.42000008
   13.95666695  125.68800354    4.90999985    2.40000010
   13.95972157  130.78100586    4.90999985    2.40000010
   13.96305561  122.47899628    4.90999985    2.40000010
   13.96888828  122.47899628    4.90999985    2.44000006
   13.97305489  126.18800354    4.90999985    2.44000006
   13.97638798  124.04499817    4.90999985    2.46000004
   13.97944355  117.45600128    4.90999985    2.48000002
   13.98277760  115.87200165    4.90999985    2.48000002
   13.98611164  118.69100189    4.90999985    2.51999998
   13.98694515  115.50199890    4.90999985    2.50000000
   13.99000072  116.47200012    4.90999985    2.51999998
   13.99305534  109.96600342    4.90999985    2.51999998
   13.99638939  113.14499664    4.90999985    2.50000000
   13.99944496  111.71399689    4.90999985    2.50000000
   14.00277805  115.33599854    4.90999985    2.53999996
   14.00611115  114.61900330    4.90999985    2.53999996
   14.01194477  114.61900330    4.90999985    2.55999994
   14.01583290  107.58499908    4.90999985    2.55999994
   14.01916599  115.10099792    4.90999985    2.53999996
   14.02027798  113.15499878    4.90999985    2.55999994
   14.02277756  120.16100311    4.90999985    2.55999994
   14.02583313  118.73400116    4.90999985    2.53999996
   14.02916622  118.27300262    4.90999985    2.53999996
   14.03222179  113.65000153    4.90999985    2.53999996
   14.03555584  112.72299957    4.90999985    2.53999996
   14.03888893  112.17099762    4.90999985    2.55999994
   14.04194450  110.33799744    4.90999985    2.55999994
   14.04527855  109.84700012    4.90999985    2.55999994
   14.04861164  108.51499939    4.90999985    2.53999996
   14.05472279  108.51499939    4.90999985    2.55999994
   14.05888939  109.86199951    4.90999985    2.55999994
   14.06194496  109.03900146    4.90999985    2.53999996
   14.06583309  116.21700287    4.90999985    2.55999994
   14.06916618  110.31300354    4.90999985    2.53999996
   14.07250023  111.38300323    4.90999985    2.55999994
   14.07555580  112.47399902    4.90999985    2.55999994
   14.07888889  106.89199829    4.90999985    2.55999994
   14.08194447  109.21700287    4.90999985    2.55999994
   14.08527756  108.53199768    4.90999985    2.55999994
   14.08694458  112.02899933    4.90999985    2.55999994
   14.08916664  103.96199799    4.90999985    2.55999994
   14.09222221  106.96199799    4.90999985    2.55999994
   14.09749985  106.96199799    4.90999985    2.55999994
   14.10166740  113.45300293    4.90999985    2.55999994
   14.10500050  108.08399963    4.90999985    2.55999994
   14.10805607  105.43800354    4.90999985    2.55999994
   14.11138916  109.19699860    4.90999985    2.55999994
   14.11444473  100.63600159    4.90999985    2.55999994
   14.11777782  107.13800049    4.90999985    2.55999994
   14.12027836  107.39800262    4.90999985    2.55999994
   14.12166691  108.89199829    4.90999985    2.55999994
   14.12472248  105.36499786    4.90999985    2.55999994
   14.12805557  107.73899841    4.90999985    2.55999994
   14.13111115  110.42500305    4.90999985    2.55999994
   14.13444424  111.65399933    4.90999985    2.55999994
   14.14027786  111.65399933    4.90999985    2.55999994
   14.14444447  112.72399902    4.90999985    2.55999994
   14.14777756  110.46499634    4.90999985    2.55999994
   14.15083313  105.87300110    4.90999985    2.55999994
   14.15361118  113.99500275    4.90999985    2.55999994
   14.15472221  107.07399750    4.90999985    2.55999994
   14.15777779  106.80200195    4.90999985    2.55999994
   14.16111088  105.50099945    4.90999985    2.55999994
   14.16416645  109.68399811    4.90999985    2.55999994
   14.16750050  105.95999908    4.90999985    2.55999994
   14.17083359  110.12000275    4.90999985    2.57999992
   14.17388916  110.66300201    4.90999985    2.55999994
   14.17722225  109.00800323    4.90999985    2.55999994
   14.18333340  109.00800323    4.90999985    2.57999992
   14.18722248  105.63800049    4.90999985    2.57999992
   14.19055557  105.33699799    4.90999985    2.55999994
   14.19388866  111.46600342    4.90999985    2.55999994
   14.19694424  107.71499634    4.90999985    2.55999994
   14.20027733  110.27999878    4.90999985    2.55999994
   14.20333290  108.74800110    4.90999985    2.57999992
   14.20666695  109.66899872    4.90999985    2.57999992
   14.21000004  112.21700287    4.90999985    2.55999994
   14.21305561  109.11900330    4.90999985    2.57999992
   14.21638870  104.71700287    4.90999985    2.57999992
   14.21972179  105.73600006    4.90999985    2.57999992
   14.22027779  102.45700073    4.90999985    2.57999992
   14.22611046  102.45700073    4.90999985    2.55999994
   14.23027706  103.92600250    4.90999985    2.57999992
   14.23333359  108.93299866    4.90999985    2.57999992
   14.23666668  101.34600067    4.90999985    2.57999992
   14.23972225  104.91899872    4.90999985    2.57999992
   14.24305534  106.17199707    4.90999985    2.57999992
   14.24638939  106.59400177    4.90999985    2.57999992
   14.24944496  112.61499786    4.90999985    2.57999992
   14.25277805  109.40200043    4.90999985    2.57999992
   14.25361156  104.77200317    4.90999985    2.57999992
   14.25638866  104.19499969    4.90999985    2.57999992
   14.25944424  111.65399933    4.90999985    2.57999992
   14.26277733  110.29499817    4.90999985    2.57999992
   14.26888847  110.29499817    4.90999985    2.57999992
   14.27305508  105.26300049    4.90999985    2.57999992
   14.27611065  109.54199982    4.90999985    2.57999992
   14.27944374  108.68000031    4.90999985    2.57999992
   14.28277779  104.24199677    4.90999985    2.57999992
   14.28583336  108.54599762    4.90999985    2.57999992
   14.28694534  101.19000244    4.90999985    2.59999990
   14.28972244  111.50000000    4.90999985    2.57999992
   14.29277802  107.65399933    4.90999985    2.59999990
   14.29611111  107.83200073    4.90999985    2.59999990
   14.29944515  104.86299896    4.90999985    2.57999992
   14.30249977  109.51399994    4.90999985    2.59999990
   14.30583382  107.03500366    4.90999985    2.57999992
   14.31166649  107.03500366    4.90999985    2.57999992
   14.31583309  107.77400208    4.90999985    2.59999990
   14.31916618  102.44100189    4.90999985    2.57999992
   14.32027817  103.69400024    4.90999985    2.57999992
   14.32277775  105.95099640    4.90999985    2.59999990
   14.32583332  108.77600098    4.90999985    2.57999992
   14.32916641  108.77200317    4.90999985    2.57999992
   14.33249950  104.69100189    4.90999985    2.59999990
   14.33555508  100.91100311    4.90999985    2.57999992
   14.33888817  106.50399780    4.90999985    2.59999990
   14.34194374  103.21199799    4.90999985    2.59999990
   14.34527779  102.31500244    4.90999985    2.59999990
   14.34861088  100.75900269    4.90999985    2.59999990
   14.35444450  100.75900269    4.90999985    2.59999990
   14.35861111  110.21800232    4.90999985    2.59999990
   14.36194515  110.39399719    4.90999985    2.59999990
   14.36527824  104.17099762    4.90999985    2.59999990
   14.36833382  106.27799988    4.90999985    2.59999990
   14.37166691  105.21499634    4.90999985    2.59999990
   14.37472248  105.38899994    4.90999985    2.59999990
   14.37805557  104.73799896    4.90999985    2.59999990
   14.38138866  106.70899963    4.90999985    2.59999990
   14.38444424  103.87599945    4.90999985    2.61999989
   14.38694477  106.87599945    4.90999985    2.59999990
   14.38833332  102.28500366    4.90999985    2.59999990
   14.39138889  112.29499817    4.90999985    2.59999990
   14.39750004  112.29499817    4.90999985    2.59999990
   14.40166664  105.81199646    4.90999985    2.59999990
   14.40472221  105.90499878    4.90999985    2.59999990
   14.40805531  102.54900360    4.90999985    2.59999990
   14.41111088  104.42500305    4.90999985    2.59999990
   14.41444397  102.99700165    4.90999985    2.59999990
   14.41777802  100.55100250    4.90999985    2.59999990
   14.42027855  104.30699921    4.90999985    2.59999990
   14.42138958  105.77200317    4.90999985    2.59999990
   14.42444515  107.69899750    4.90999985    2.61999989
   14.42777824  105.62899780    4.90999985    2.61999989
   14.43111134  105.33599854    4.90999985    2.61999989
   14.43416691  105.64099884    4.90999985    2.59999990
   14.44027805  105.64099884    4.90999985    2.59999990
   14.44444466  108.14900208    4.90999985    2.59999990
   14.44750023  104.85800171    4.90999985    2.59999990
   14.45083332  102.33200073    4.90999985    2.61999989
   14.45361137  104.31500244    4.90999985    2.59999990
   14.45444393  101.12000275    4.90999985    2.61999989
   14.45749950  102.92900085    4.90999985    2.61999989
   14.46083355  106.70099640    4.90999985    2.61999989
   14.46416664  101.19100189    4.90999985    2.61999989
   14.46722221   98.30740356    4.90999985    2.61999989
   14.47055531  102.62500000    4.90999985    2.61999989
   14.47361088   99.02290344    4.90999985    2.59999990
   14.47694397  101.71900177    4.90999985    2.59999990
   14.48305511  101.71900177    4.90999985    2.61999989
   14.48722267  103.01100159    4.90999985    2.59999990
   14.49055576   94.83969879    4.90999985    2.61999989
   14.49361134  102.91100311    4.90999985    2.61999989
   14.49694443  107.11799622    4.90999985    2.61999989
   14.50027752  111.04799652    4.90999985    2.61999989
   14.50333309  105.17500305    4.90999985    2.61999989
   14.50666714  104.54900360    4.90999985    2.61999989
   14.51000023  109.22499847    4.90999985    2.61999989
   14.51305580  111.50099945    4.90999985    2.61999989
   14.51638889  102.27100372    4.90999985    2.61999989
   14.51944447  101.13500214    4.90999985    2.61999989
   14.52027798  101.01799774    4.90999985    2.61999989
   14.52611065  101.01799774    4.90999985    2.61999989
   14.52999973  102.47299957    4.90999985    2.61999989
   14.53333378  101.53500366    4.90999985    2.61999989
   14.53666687  103.21900177    4.90999985    2.61999989
   14.53972244  101.73799896    4.90999985    2.61999989
   14.54305553   97.87750244    4.90999985    2.61999989
   14.54638958  102.26300049    4.90999985    2.61999989
   14.54944515  105.37899780    4.90999985    2.61999989
   14.55277824  102.63800049    4.90999985    2.61999989
   14.55361176   99.68160248    4.90999985    2.61999989
   14.55638885   98.91989899    4.90999985    2.61999989
   14.55944443  100.22499847    4.90999985    2.61999989
   14.56277752   97.15329742    4.90999985    2.61999989
   14.56888866   97.15329742    4.90999985    2.61999989
   14.57305527  100.18000031    4.90999985    2.64000010
   14.57611084  101.51899719    4.90999985    2.64000010
   14.57944393   95.08280182    4.90999985    2.61999989
   14.58249950  110.66000366    4.90999985    2.61999989
   14.58583260  104.26699829    4.90999985    2.61999989
   14.58694458  104.56700134    4.90999985    2.61999989
   14.58944416  107.20899963    4.90999985    2.61999989
   14.59249973  102.50499725    4.90999985    2.64000010
   14.59583282  100.13400269    4.90999985    2.61999989
   14.59916592  106.39800262    4.90999985    2.64000010
   14.60222244  103.62799835    4.90999985    2.64000010
   14.60555553   98.49279785    4.90999985    2.64000010
   14.61166668   98.49279785    4.90999985    2.61999989
   14.61583328   98.67829895    4.90999985    2.61999989
   14.61888885  100.97200012    4.90999985    2.61999989
   14.62027836  106.16100311    4.90999985    2.61999989
   14.62277794  101.34100342    4.90999985    2.61999989
   14.62583351   98.55650330    4.90999985    2.61999989
   14.62916660   99.80960083    4.90999985    2.64000010
   14.63249969  100.50599670    4.90999985    2.61999989
   14.63555527   94.68840027    4.90999985    2.64000010
   14.63888836   99.16549683    4.90999985    2.64000010
   14.64222240  106.42199707    4.90999985    2.64000010
   14.64527798   99.80419922    4.90999985    2.61999989
   14.64861107   97.45510101    4.90999985    2.61999989
   14.65444374   97.45510101    4.90999985    2.61999989
   14.65861034   95.03450012    4.90999985    2.61999989
   14.66194439   92.43240356    4.90999985    2.61999989
   14.66499996   96.89579773    4.90999985    2.61999989
   14.66833401  103.21299744    4.90999985    2.64000010
   14.67166710  101.34100342    4.90999985    2.64000010
   14.67472267   90.14890289    4.90999985    2.61999989
   14.67805576   99.55370331    4.90999985    2.61999989
   14.68111134   96.35579681    4.90999985    2.61999989
   14.68444443  106.37100220    4.90999985    2.64000010
   14.68694496  102.88800049    4.90999985    2.64000010
   14.68805599   96.38710022    4.90999985    2.64000010
   14.69111156   96.08760071    4.90999985    2.61999989
   14.69722271   96.08760071    4.90999985    2.64000010
   14.70138836  102.95300293    4.90999985    2.64000010
   14.70472240   98.65840149    4.90999985    2.64000010
   14.70833302   95.85040283    4.90999985    2.64000010
   14.71138859   99.72850037    4.90999985    2.64000010
   14.71472168   95.04049683    4.90999985    2.64000010
   14.71805477  101.27300262    4.90999985    2.64000010
   14.72027779   97.31150055    4.90999985    2.64000010
   14.72166634   98.17130280    4.90999985    2.64000010
   14.72499943   94.44670105    4.90999985    2.64000010
   14.72805500   91.19049835    4.90999985    2.64000010
   14.73138809  100.45400238    4.90999985    2.64000010
   14.73444462  100.10099792    4.90999985    2.64000010
   14.74027824  100.10099792    4.90999985    2.64000010
   14.74444485   99.20030212    4.90999985    2.64000010
   14.74750042   98.71779633    4.90999985    2.64000010
   14.75083351   95.94029999    4.90999985    2.64000010
   14.75361156  100.11699677    4.90999985    2.64000010
   14.75444412   93.92929840    4.90999985    2.64000010
   14.75777817   98.56700134    4.90999985    2.64000010
   14.76083374  100.45999908    4.90999985    2.64000010
   14.76416683   95.28880310    4.90999985    2.64000010
   14.76722240   95.18939972    4.90999985    2.64000010
   14.77055550   90.89170074    4.90999985    2.64000010
   14.77388859   97.37079620    4.90999985    2.64000010
   14.77694416   96.33630371    4.90999985    2.64000010
   14.78305531   96.33630371    4.90999985    2.64000010
   14.78722286   91.76689911    4.90999985    2.64000010
   14.79027843   91.12329865    4.90999985    2.64000010
   14.79361153   93.69619751    4.90999985    2.64000010
   14.79694462   98.75559998    4.90999985    2.64000010
   14.80000019   97.76920319    4.90999985    2.64000010
   14.80333328   98.84349823    4.90999985    2.64000010
   14.80666733  101.54399872    4.90999985    2.64000010
   14.80972195  100.80699921    4.90999985    2.66000009
   14.81305599   96.52259827    4.90999985    2.64000010
   14.81611156   95.06639862    4.90999985    2.66000009
   14.81944466   98.52010345    4.90999985    2.64000010
   14.82027817   96.00160217    4.90999985    2.64000010
   14.84111118   96.00160217    4.90999985    2.64000010
   14.84527779   94.37129974    4.90999985    2.66000009
   14.84833336   96.28459930    4.90999985    2.66000009
   14.85166740   91.42160034    4.90999985    2.64000010
   14.85361195   91.20010376    4.90999985    2.66000009
   14.85527802   97.58139801    4.90999985    2.64000010
   14.85861111   91.95829773    4.90999985    2.66000009
   14.86194515   92.18039703    4.90999985    2.66000009
   14.86500072   98.28250122    4.90999985    2.66000009
   14.86833382   92.10019684    4.90999985    2.66000009
   14.87138939   97.19979858    4.90999985    2.66000009
   14.87472248   87.40560150    4.90999985    2.66000009
   14.87805557   90.76570129    4.90999985    2.66000009
   14.88388920   90.76570129    4.90999985    2.66000009
   14.88777733   94.31690216    4.90999985    2.64000010
   14.89111137   95.70310211    4.90999985    2.66000009
   14.89444447   95.61990356    4.90999985    2.66000009
   14.89750004   91.42340088    4.90999985    2.66000009
   14.90083313   95.46700287    4.90999985    2.64000010
   14.90416622   91.04589844    4.90999985    2.66000009
   14.90722179   95.24500275    4.90999985    2.66000009
   14.91055489   96.24379730    4.90999985    2.64000010
   14.91361046   91.40899658    4.90999985    2.66000009
   14.91722298   93.52179718    4.90999985    2.66000009
   14.92027855   94.36150360    4.90999985    2.66000009
   14.92111111   96.02670288    4.90999985    2.66000009
   14.92666721   96.02670288    4.90999985    2.66000009
   14.93083382   98.45220184    4.90999985    2.66000009
   14.93388939   89.20970154    4.90999985    2.66000009
   14.93722248   94.42559814    4.90999985    2.66000009
   14.94055557   92.47760010    4.90999985    2.66000009
   14.94361115   98.46019745    4.90999985    2.64000010
   14.94694424   96.00209808    4.90999985    2.64000010
   14.94999981   92.70649719    4.90999985    2.66000009
   14.95333290   96.19010162    4.90999985    2.66000009
   14.95388889   96.25980377    4.90999985    2.66000009
   14.95722198   93.30960083    4.90999985    2.66000009
