    HOUR (UT)   FLARE FACTOR    SKY TESTER    SUN TESTER
   11.75638866   -1.00000000   -1.00000000   -1.00000000
   11.79027843  171.18699646    0.00000000    0.00000000
   11.79361153  181.94700623    0.00000000    0.00000000
   11.79666710  170.38900757    0.00000000    0.00000000
   11.80000019  164.25799561    0.00000000    0.00000000
   11.80333328  163.28100586    0.00000000    0.00000000
   11.80638885  161.52900696    0.00000000    0.00000000
   11.81055546  161.52900696    0.00000000    0.00000000
   11.81472206  164.22200012    0.00000000    0.00000000
   11.81805515  172.04400635    0.00000000    0.00000000
   11.82111073  167.90499878    0.00000000    0.00000000
   11.82361126  173.36300659    0.00000000    0.00000000
   11.82499981  168.71099854    0.00000000    0.00000000
   11.82833290  164.50000000    0.00000000    0.00000000
   11.83166695  172.24899292    0.00000000    0.00000000
   11.83472157  169.66000366    0.00000000    0.00000000
   11.83805561  160.30999756    0.00000000    0.00000000
   11.84138870  156.42300415    0.00000000    0.00000000
   11.84444427  161.54699707    0.00000000    0.00000000
   11.84777737  166.13000488    0.00000000    0.00000000
   11.85333347  166.13000488    0.00000000    0.00000000
   11.85750008  169.18600464    0.00000000    0.00000000
   11.86083412  167.01400757    0.00000000    0.00000000
   11.86388969  155.01800537    0.00000000    0.00000000
   11.86722279  156.74099731    0.00000000    0.00000000
   11.87055588  157.36199951    0.00000000    0.00000000
   11.87361145  150.71099854    0.00000000    0.00000000
   11.87694454  161.04499817    0.00000000    0.00000000
   11.88000011  156.72200012    0.00000000    0.00000000
   11.88333321  151.90299988    0.00000000    0.00000000
   11.88666630  145.31399536    0.00000000    0.00000000
   11.88972187  157.39300537    0.00000000    0.00000000
   11.89027786  163.33099365    0.00000000    0.00000000
   11.89638901  163.33099365    0.00000000    0.00000000
   11.90027714  160.96800232    0.00000000    0.00000000
   11.90361118  157.52299500    0.00000000    0.00000000
   11.90694427  161.24000549    4.00000000    2.21000004
   11.90999985  157.28399658    4.00000000    2.21000004
   11.91333294  167.18299866    4.00000000    2.21000004
   11.91666698  153.00500488    4.00000000    2.21000004
   11.91972256  157.28300476    4.00000000    2.21000004
   11.92305565  152.70899963    4.00000000    2.21000004
   11.92361164  151.30799866    4.00000000    2.21000004
   11.92666721  158.81500244    4.00000000    2.21000004
   11.93000031  158.75000000    4.00000000    2.21000004
   11.93305588  154.44599915    4.00000000    2.21000004
   11.93916702  154.44599915    4.00000000    2.21000004
   11.94333363  155.11399841    4.00000000    2.21000004
   11.94638920  152.13800049    4.00000000    2.21000004
   11.94972229  149.82600403    4.00000000    2.21000004
   11.95305538  155.00000000    4.00000000    2.21000004
   11.95611095  149.95599365    4.00000000    2.21000004
   11.95694447  156.46099854    4.00000000    2.21000004
   11.95972157  153.46200562    4.00000000    2.21000004
   11.96305561  162.38099670    4.00000000    2.21000004
   11.96611118  149.49699402    4.00000000    2.21000004
   11.96999931  154.92599487    4.00000000    2.21000004
   11.97333336  156.16700745    4.00000000    2.21000004
   11.97638798  157.59800720    4.00000000    2.21000004
   11.98194408  157.59800720    4.00000000    2.21000004
   11.98611164  146.70700073    4.00000000    2.21000004
   11.98944473  156.34899902    4.00000000    2.21000004
   11.99027824  148.48300171    4.00000000    2.21000004
   11.99305534  149.13099670    4.00000000    2.21000004
   11.99638939  156.57099915    4.00000000    2.21000004
   11.99944496  145.62100220    4.00000000    2.21000004
   12.00277805  141.71499634    4.00000000    2.21000004
   12.00611115  146.36799622    4.00000000    2.21000004
   12.00916672  148.64199829    4.00000000    2.21000004
   12.01249981  147.09599304    4.00000000    2.21000004
   12.01555538  146.55099487    4.00000000    2.21000004
   12.01888847  139.78599548    4.00000000    2.21000004
   12.02472210  139.78599548    4.00000000    2.21000004
   12.02888870  148.13699341    4.00000000    2.21000004
   12.03222179  164.71200562    4.00000000    2.21000004
   12.03527832  154.18699646    4.00000000    2.21000004
   12.03861141  146.62399292    4.00000000    2.21000004
   12.04194450  143.12399292    4.00000000    2.21000004
   12.04500008  150.47700500    4.00000000    2.21000004
   12.04833412  152.62899780    4.00000000    2.21000004
   12.05138874  147.77699280    4.00000000    2.21000004
   12.05472279  149.60600281    4.00000000    2.21000004
   12.05694485  147.40299988    4.00000000    2.21000004
   12.05833340  136.41600037    4.00000000    2.21000004
   12.06166649  141.07200623    4.00000000    2.21000004
   12.06750011  141.07200623    4.00000000    2.21000004
   12.07166672  139.33500671    4.00000000    2.21000004
   12.07499981  144.77400208    4.00000000    2.21000004
   12.07833290  146.53199768    4.00000000    2.21000004
   12.08138847  149.85800171    4.00000000    2.21000004
   12.08472157  142.44200134    4.00000000    2.21000004
   12.08777714  150.09800720    4.00000000    2.21000004
   12.09027767  146.35000610    4.00000000    2.21000004
   12.09166622  144.09199524    4.00000000    2.21000004
   12.09499931  141.96699524    4.00000000    2.21000004
   12.09805489  137.82499695    4.00000000    2.21000004
   12.10138893  148.13400269    4.00000000    2.21000004
   12.10444450  139.71899414    4.00000000    2.21000004
   12.11055565  139.71899414    4.00000000    2.21000004
   12.11472225  143.03999329    4.00000000    2.21000004
   12.11777782  146.80799866    4.00000000    2.21000004
   12.12111092  144.08999634    4.00000000    2.21000004
   12.12361145  141.27200317    4.00000000    2.21000004
   12.12472248  136.13499451    4.00000000    2.21000004
   12.12805557  141.69400024    4.00000000    2.21000004
   12.13111115  140.22799683    4.00000000    2.21000004
   12.13444424  132.94200134    4.00000000    2.21000004
   12.13777733  147.91299438    4.00000000    2.21000004
   12.14083290  146.00500488    4.00000000    2.21000004
   12.14416695  150.88499451    4.00000000    2.21000004
   12.14722252  135.26400757    4.00000000    2.21000004
   12.15333271  135.26400757    4.00000000    2.21000004
   12.15749931  134.13900757    4.00000000    2.21000004
   12.16083336  161.56300354    4.00000000    2.21000004
   12.16388893  127.73000336    4.00000000    2.21000004
   12.16722298  139.92300415    4.00000000    2.21000004
   12.17138958  144.09899902    4.00000000    2.21000004
   12.17472267  144.03799438    4.00000000    2.21000004
   12.17777824  130.12199402    4.00000000    2.21000004
   12.18111134  134.29699707    4.00000000    2.21000004
   12.18416691  134.79800415    4.00000000    2.21000004
   12.18750000  140.46899414    4.00000000    2.21000004
   12.19027805  134.28999329    4.00000000    2.21000004
   12.19111156  139.50199890    4.00000000    2.21000004
   12.19611073  139.50199890    4.00000000    2.21000004
   12.20027733  141.90400696    4.00000000    2.21000004
   12.20361137  160.21699524    4.00000000    2.21000004
   12.20666695  133.76899719    4.00000000    2.21000004
   12.21000004  143.26600647    4.00000000    2.21000004
   12.21333313  150.69900513    4.00000000    2.21000004
   12.21666622  144.32299805    4.00000000    2.21000004
   12.21972179  145.22700500    4.00000000    2.21000004
   12.22305489  139.19099426    4.00000000    2.21000004
   12.22361088  133.86399841    4.00000000    2.21000004
   12.22666645  145.73699951    4.00000000    2.21000004
   12.22999954  136.58700562    4.00000000    2.21000004
   12.23305511  138.34399414    4.00000000    2.21000004
   12.23888874  138.34399414    4.00000000    2.21000004
   12.24305534  131.73699951    4.00000000    2.21000004
   12.24638939  140.44599915    4.00000000    2.21000004
   12.24972248  143.19500732    4.00000000    2.21000004
   12.25277805  148.67599487    4.00000000    2.21000004
   12.25611115  139.91200256    4.00000000    2.21000004
   12.25694466  135.07099915    4.00000000    2.21000004
   12.25972176  135.58700562    4.00000000    2.21000004
   12.26305580  136.07400513    4.00000000    2.21000004
   12.26611137  142.59899902    4.00000000    2.21000004
   12.26944447  131.58200073    4.00000000    2.21000004
   12.27277756  141.79800415    4.00000000    2.21000004
   12.27583313  129.25500488    4.00000000    2.21000004
   12.28194427  129.25500488    4.00000000    2.21000004
   12.28611183  140.05000305    4.00000000    2.21000004
   12.28916740  129.20399475    4.00000000    2.21000004
   12.29027843  135.86599731    4.00000000    2.21000004
   12.29277802  124.62999725    4.00000000    2.21000004
   12.29611111  143.27799988    4.00000000    2.21000004
   12.29916668  141.60699463    4.00000000    2.21000004
   12.30249977  134.61999512    4.00000000    2.21000004
   12.30583382  126.40799713    4.00000000    2.21000004
   12.30888939  138.34500122    4.00000000    2.21000004
   12.31222248  131.13699341    4.00000000    2.21000004
   12.31527805  135.35400391    4.00000000    2.21000004
   12.31861115  136.98199463    4.00000000    2.21000004
   12.32472229  136.98199463    4.00000000    2.21000004
   12.32888889  130.37800598    4.00000000    2.21000004
   12.33222198  133.68499756    4.00000000    2.21000004
   12.33527756  138.71600342    4.00000000    2.21000004
   12.33861065  129.98599243    4.00000000    2.21000004
   12.34166622  132.39199829    4.00000000    2.21000004
   12.34499931  129.87899780    4.00000000    2.21000004
   12.34833336  130.47599792    4.00000000    2.21000004
   12.35138893  133.29299927    4.00000000    2.21000004
   12.35472298  125.30100250    4.00000000    2.21000004
   12.35694504  144.76899719    4.00000000    2.21000004
   12.35833359  138.24000549    4.00000000    2.21000004
   12.36166668  128.16900635    4.00000000    2.21000004
   12.36750031  128.16900635    4.00000000    2.21000004
   12.37305546  135.28300476    4.00000000    2.21000004
   12.37611103  122.28099823    4.00000000    2.21000004
   12.37944412  129.44000244    4.00000000    2.21000004
   12.38277817  136.32600403    4.00000000    2.21000004
   12.38583279  131.79800415    4.00000000    2.21000004
   12.38916683  135.43299866    4.00000000    2.21000004
   12.39055538  126.45600128    4.00000000    2.21000004
   12.39277744  128.70599365    4.00000000    2.21000004
   12.39611053  147.30400085    4.00000000    2.21000004
   12.39916611  139.21499634    4.00000000    2.21000004
   12.40249920  130.99699402    4.00000000    2.21000004
   12.40583324  140.97900391    4.00000000    2.21000004
   12.41027737  140.97900391    4.00000000    2.21000004
   12.41444397  135.79899597    4.00000000    2.21000004
   12.41777802  142.19299316    4.00000000    2.21000004
   12.42111111  131.28799438    4.00000000    2.21000004
   12.42388916  132.94700623    4.00000000    2.21000004
   12.42444515  130.22999573    4.00000000    2.21000004
   12.42777824  133.66400146    4.00000000    2.21000004
   12.43083382  146.34199524    4.00000000    2.21000004
   12.43416691  136.80499268    4.00000000    2.21000004
   12.43750000  140.61399841    4.00000000    2.21000004
   12.44055557  141.65400696    4.00000000    2.21000004
   12.44388866  131.47500610    4.00000000    2.21000004
   12.44722271  135.06900024    4.00000000    2.21000004
   12.45333290  135.06900024    4.00000000    2.21000004
   12.45749950  134.97399902    4.00000000    2.21000004
   12.46055508  149.49699402    4.00000000    2.21000004
   12.46388912  130.79800415    4.00000000    2.21000004
   12.46694374  132.18299866    4.00000000    2.21000004
   12.47027779  140.32699585    4.00000000    2.21000004
   12.47361088  131.16000366    4.00000000    2.21000004
   12.47666645  141.92100525    4.00000000    2.21000004
   12.47999954  139.02900696    4.00000000    2.21000004
   12.48361111  145.38900757    4.00000000    2.21000004
   12.48694515  139.09399414    4.00000000    2.21000004
   12.49000072  139.62100220    4.00000000    2.21000004
   12.49055576  146.73599243    4.00000000    2.21000004
   12.49611092  146.73599243    4.00000000    2.21000004
   12.50027752  142.00000000    4.00000000    2.21000004
   12.50333309  138.96099854    4.00000000    2.21000004
   12.50666714  143.17999268    4.00000000    2.21000004
   12.51000023  137.96600342    4.00000000    2.21000004
   12.51305580  137.25100708    4.00000000    2.21000004
   12.51638889  145.84800720    4.00000000    2.21000004
   12.51944447  142.44099426    4.00000000    2.21000004
   12.52277756  131.09399414    4.00000000    2.21000004
   12.52388859  138.35400391    4.00000000    2.21000004
   12.52638817  134.90600586    4.00000000    2.21000004
   12.52944374  133.14900208    4.00000000    2.21000004
   12.53277779  136.77799988    4.00000000    2.21000004
   12.53888893  136.77799988    4.00000000    2.21000004
   12.54305553  134.63099670    4.00000000    2.21000004
   12.54638958  128.85699463    4.00000000    2.21000004
   12.54944515  134.75399780    4.00000000    2.21000004
   12.55277824  131.47000122    4.00000000    2.21000004
   12.55611134  135.42399597    4.00000000    2.21000004
   12.55722237  148.86700439    4.00000000    2.21000004
   12.55972195  128.28900146    4.00000000    2.21000004
   12.56277752  135.01499939    4.00000000    2.21000004
   12.56611156  136.09899902    4.00000000    2.21000004
   12.56944466  135.71299744    4.00000000    2.21000004
   12.57305527  137.00000000    4.00000000    2.21000004
   12.57638836  146.94900513    4.00000000    2.21000004
   12.58166695  146.94900513    4.00000000    2.21000004
   12.58583260  140.62399292    4.00000000    2.21000004
   12.58916664  143.32499695    4.00000000    2.21000004
   12.59055519  132.55799866    4.00000000    2.21000004
   12.59277725  146.36900330    4.00000000    2.21000004
   12.59583282  141.12800598    4.00000000    2.21000004
   12.59916592  135.30900574    4.00000000    2.21000004
   12.60249996  140.27299500    4.00000000    2.21000004
   12.60555553  144.63000488    4.00000000    2.21000004
   12.60888958  142.75999451    4.00000000    2.21000004
   12.61222267  139.54499817    4.00000000    2.21000004
   12.61527824  146.62500000    4.00000000    2.21000004
   12.61861134  138.58200073    4.00000000    2.21000004
   12.62472248  138.58200073    4.00000000    2.21000004
   12.62861156  155.12500000    4.00000000    2.21000004
   12.63194466  149.00900269    4.00000000    2.21000004
   12.63527775  156.42300415    4.00000000    2.21000004
   12.63833332  152.49299622    4.00000000    2.21000004
   12.64166641  148.47700500    4.00000000    2.21000004
   12.64499950  154.07299805    4.00000000    2.21000004
   12.64805508  139.13099670    4.00000000    2.21000004
   12.65138817  139.85299683    4.00000000    2.21000004
   12.65444374  155.49899292    4.00000000    2.21000004
   12.65722179  137.73699951    4.00000000    2.21000004
   12.65833282  142.86700439    4.00000000    2.21000004
   12.66166592  158.45199585    4.00000000    2.21000004
   12.66750050  158.45199585    4.00000000    2.21000004
   12.67166710  153.98199463    4.00000000    2.21000004
   12.67472267  158.89100647    4.00000000    2.21000004
   12.67805576  160.44900513    4.00000000    2.21000004
   12.68138885  158.26899719    4.00000000    2.21000004
   12.68444443  152.17700195    4.00000000    2.21000004
   12.68777752  152.55599976    4.00000000    2.21000004
   12.69055557  158.58200073    4.00000000    2.21000004
   12.69138908  148.32600403    4.00000000    2.21000004
   12.69472218  143.00100708    4.00000000    2.21000004
   12.69777775  148.25900269    4.00000000    2.21000004
   12.70111084  155.81100464    4.00000000    2.21000004
   12.70416641  143.56599426    4.00000000    2.21000004
   12.71027756  143.56599426    4.00000000    2.21000004
   12.71444416  152.53799438    4.00000000    2.21000004
   12.71777725  169.85699463    4.00000000    2.21000004
   12.72083282  151.07899475    4.00000000    2.21000004
   12.72388840  173.63900757    4.00000000    2.21000004
   12.72444439  159.37800598    4.00000000    2.21000004
   12.72777748  170.57299805    4.00000000    2.21000004
   12.73083305  173.76400757    4.00000000    2.21000004
   12.73416710  169.65100098    4.00000000    2.21000004
   12.73722267  171.50199890    4.00000000    2.21000004
   12.74055576  167.63200378    4.00000000    2.21000004
   12.74388885  159.58200073    4.00000000    2.21000004
   12.74694443  156.25100708    4.00000000    2.21000004
   12.75305557  156.25100708    4.00000000    2.21000004
   12.75722218  155.27400208    4.00000000    2.21000004
   12.75777817  157.19400024    4.00000000    2.21000004
   12.76111126  148.80700684    4.00000000    2.21000004
   12.76416683  144.92100525    4.00000000    2.21000004
   12.76749992  176.98899841    4.00000000    2.21000004
   12.77055550  155.66000366    4.00000000    2.21000004
   12.77388859  154.22099304    4.00000000    2.21000004
   12.77722168  160.38499451    4.00000000    2.21000004
   12.78027725  148.36300659    4.00000000    2.21000004
   12.78361130  151.37399292    4.00000000    2.21000004
   12.78694534  157.63800049    4.00000000    2.21000004
   12.79000092  154.40400696    4.00000000    2.21000004
   12.79055595  153.04800415    4.00000000    2.21000004
   12.81138897  153.04800415    4.00000000    2.21000004
   12.81555557  162.34899902    4.00000000    2.21000004
   12.81888866  156.00900269    4.00000000    2.21000004
   12.82194424  153.74400330    4.00000000    2.21000004
   12.82388878  151.47799683    4.00000000    2.21000004
   12.82555580  156.07699585    4.00000000    2.21000004
   12.82888889  147.65100098    4.00000000    2.21000004
   12.83194447  144.92900085    4.00000000    2.21000004
   12.83527756  145.79699707    4.00000000    2.21000004
   12.83861065  149.39799500    4.00000000    2.21000004
   12.84166622  158.27900696    4.00000000    2.21000004
   12.84499931  148.83200073    4.00000000    2.21000004
   12.84805489  137.10400391    4.00000000    2.21000004
   12.85416698  137.10400391    4.00000000    2.21000004
   12.85833359  158.45199585    4.00000000    2.21000004
   12.86166668  156.65400696    4.00000000    2.21000004
   12.86472225  160.39500427    4.00000000    2.21000004
   12.86805534  147.85899353    4.00000000    2.21000004
   12.87138939  162.37399292    4.00000000    2.21000004
   12.87444496  152.73399353    4.00000000    2.21000004
   12.87777805  165.06700134    4.00000000    2.21000004
   12.88111115  133.45300293    4.00000000    2.21000004
   12.88416672  147.05200195    4.00000000    2.21000004
   12.88749981  147.95199585    4.00000000    2.21000004
   12.89083290  157.00799561    4.00000000    2.21000004
   12.89111137  142.67100525    4.00000000    2.21000004
   12.89694405  142.67100525    4.00000000    2.21000004
   12.90111065  138.63999939    4.00000000    2.21000004
   12.90444374  146.88600159    4.00000000    2.21000004
   12.90749931  147.04899597    4.00000000    2.21000004
   12.91083336  155.17799377    4.00000000    2.21000004
   12.91416645  157.38200378    4.00000000    2.21000004
   12.91722298  145.88900757    4.00000000    2.21000004
   12.92055607  148.91400146    4.00000000    2.21000004
   12.92361164  150.81900024    4.00000000    2.21000004
   12.92416668  143.73100281    4.00000000    2.21000004
