    HOUR (UT)   FLARE FACTOR    SKY TESTER    SUN TESTER
   11.90999985   -1.00000000   -1.00000000   -1.00000000
   11.97805500  166.69900513    1.34000003    2.15000010
   11.98111057  155.10800171    1.36000001    2.15000010
   11.98444462  146.93600464    1.36000001    2.15000010
   11.98777771  158.41200256    1.38000000    2.15000010
   11.99083328  159.78599548    1.36000001    2.15000010
   11.99416733  153.38800049    1.36000001    2.17000008
   11.99833393  153.38800049    1.36000001    2.15000010
   12.00249958  155.52999878    1.36000001    2.17000008
   12.00555515  148.25100708    1.36000001    2.17000008
   12.00888920  152.77000427    1.36000001    2.17000008
   12.01138878  153.90199280    1.36000001    2.17000008
   12.01222229  150.09599304    1.36000001    2.17000008
   12.01555538  154.14500427    1.36000001    2.17000008
   12.01861095  158.64199829    1.36000001    2.17000008
   12.02194405  148.67999268    1.36000001    2.17000008
   12.02527714  154.23199463    1.36000001    2.17000008
   12.02833271  162.60000610    1.36000001    2.17000008
   12.03166676  156.80000305    1.36000001    2.17000008
   12.03500080  150.71200562    1.34000003    2.17000008
   12.04111195  150.71200562    1.34000003    2.19000006
   12.04527855  157.41600037    1.34000003    2.19000006
   12.04833412  142.81399536    1.34000003    2.19000006
   12.05166721  155.63600159    1.34000003    2.21000004
   12.05500031  159.84399414    1.34000003    2.19000006
   12.05805588  152.47500610    1.34000003    2.19000006
   12.06138897  146.77299500    1.34000003    2.19000006
   12.06472206  148.23500061    1.34000003    2.21000004
   12.06777763  142.11500549    1.34000003    2.21000004
   12.07111073  141.64100647    1.34000003    2.21000004
   12.07416630  147.27900696    1.34000003    2.21000004
   12.07750034  149.79400635    1.33000004    2.21000004
   12.07805538  154.13999939    1.33000004    2.21000004
   12.08388901  154.13999939    1.33000004    2.21000004
   12.08805561  155.79699707    1.33000004    2.21000004
   12.09138870  153.00700378    1.30999994    2.23000002
   12.09444427  149.85400391    1.33000004    2.23000002
   12.09777737  146.94099426    1.30999994    2.21000004
   12.10111141  145.96099854    1.28999996    2.23000002
   12.10416698  155.44000244    1.28999996    2.23000002
   12.10750008  149.52799988    1.28999996    2.23000002
   12.11055565  149.58700562    1.30999994    2.23000002
   12.11138916  149.07699585    1.30999994    2.23000002
   12.11416721  159.35099792    1.30999994    2.23000002
   12.11750031  156.71899414    1.28999996    2.23000002
   12.12083340  159.31199646    1.28999996    2.25000000
   12.12666702  159.31199646    1.28999996    2.23000002
   12.13083363  150.42700195    1.28999996    2.23000002
   12.13416672  153.97700500    1.26999998    2.23000002
   12.13749981  169.39300537    1.26999998    2.23000002
   12.14055538  150.96800232    1.26999998    2.23000002
   12.14388847  146.76100159    1.26999998    2.25000000
   12.14472198  151.26499939    1.26999998    2.25000000
   12.14722252  159.85000610    1.26999998    2.25000000
   12.15055561  158.94299316    1.26999998    2.25000000
   12.15388870  155.44799805    1.26999998    2.25000000
   12.15694427  166.80900574    1.26999998    2.25000000
   12.16027737  159.60899353    1.26999998    2.25000000
   12.16361046  155.15100098    1.26999998    2.25000000
   12.16972256  155.15100098    1.26999998    2.25000000
   12.17388916  151.37699890    1.25000000    2.25000000
   12.17694473  163.65299988    1.26999998    2.25000000
   12.17805576  159.48399353    1.25000000    2.25000000
   12.18055630  157.43299866    1.25000000    2.25000000
   12.18388939  149.47999573    1.25000000    2.25000000
   12.18722248  158.74899292    1.25000000    2.26999998
   12.19027805  150.54299927    1.25000000    2.26999998
   12.19361115  159.45399475    1.25000000    2.26999998
   12.19694424  154.73599243    1.25000000    2.26999998
   12.19999981  146.54200745    1.25000000    2.26999998
   12.20333290  156.31599426    1.23000002    2.26999998
   12.20638847  152.15899658    1.25000000    2.26999998
   12.21249962  152.15899658    1.25000000    2.26999998
   12.21666622  148.46499634    1.23000002    2.28999996
   12.21972179  155.17300415    1.21000004    2.28999996
   12.22305489  160.27600098    1.21000004    2.28999996
   12.22638798  152.06799316    1.21000004    2.26999998
   12.22944355  162.38299561    1.21000004    2.26999998
   12.23277760  148.52499390    1.21000004    2.26999998
   12.23583317  160.82499695    1.21000004    2.28999996
   12.23916721  159.96499634    1.21000004    2.28999996
   12.24250031  158.83000183    1.21000004    2.28999996
   12.24472237  166.05700684    1.21000004    2.28999996
   12.24611092  151.85600281    1.19000006    2.28999996
   12.24916649  159.75700378    1.19000006    2.28999996
   12.25527763  159.75700378    1.19000006    2.28999996
   12.25944424  179.87399292    1.19000006    2.30999994
   12.26277733  166.16499329    1.16999996    2.28999996
   12.26583290  169.97300720    1.16999996    2.28999996
   12.26916599  162.44299316    1.16999996    2.28999996
   12.27250004  166.78900146    1.16999996    2.30999994
   12.27555561  173.18400574    1.16999996    2.30999994
   12.27805519  161.19799805    1.16999996    2.30999994
   12.27944374  161.27299500    1.16999996    2.30999994
   12.28249931  158.69900513    1.14999998    2.30999994
   12.28583336  165.14300537    1.14999998    2.30999994
   12.28888893  174.08799744    1.14999998    2.30999994
   12.29222298  163.23599243    1.13000000    2.30999994
   12.29805565  163.23599243    1.13000000    2.30999994
   12.30222225  167.41999817    1.14999998    2.30999994
   12.30555534  164.12899780    1.13000000    2.30999994
   12.30888939  146.92799377    1.11000001    2.32999992
   12.31138897  152.70700073    1.11000001    2.32999992
   12.31250000  162.30099487    1.11000001    2.32999992
   12.31555557  163.71299744    1.11000001    2.32999992
   12.31888866  153.87500000    1.11000001    2.32999992
   12.32222176  158.80499268    1.09000003    2.32999992
   12.32527733  159.49099731    1.11000001    2.32999992
   12.32861137  164.49499512    1.09000003    2.32999992
   12.33194447  165.93899536    1.09000003    2.32999992
   12.33527756  165.33900452    1.09000003    2.32999992
   12.34111118  165.33900452    1.09000003    2.32999992
   12.34527779  155.90800476    1.09000003    2.32999992
   12.34833336  151.30000305    1.09000003    2.32999992
   12.35166740  154.61000061    1.07000005    2.32999992
   12.35500050  155.40400696    1.07000005    2.32999992
   12.35805607  157.82200623    1.07000005    2.32999992
   12.36138916  158.13900757    1.07000005    2.32999992
   12.36444473  151.60200500    1.07000005    2.32999992
   12.36777782  152.76800537    1.07000005    2.32999992
   12.37111092  158.44799805    1.07000005    2.34999990
   12.37416649  149.13900757    1.05999994    2.34999990
   12.37777805  157.60499573    1.07000005    2.34999990
   12.37833309  164.01400757    1.07000005    2.34999990
   12.38388920  164.01400757    1.05999994    2.34999990
   12.38805580  164.63099670    1.05999994    2.34999990
   12.39111137  162.71099854    1.05999994    2.34999990
   12.39444447  156.88800049    1.05999994    2.34999990
   12.39777756  156.75199890    1.05999994    2.34999990
   12.40111065  165.09599304    1.05999994    2.34999990
   12.40444374  163.35600281    1.05999994    2.34999990
   12.40749931  156.06900024    1.05999994    2.34999990
   12.41083336  160.98500061    1.05999994    2.34999990
   12.41138840  157.12199402    1.05999994    2.34999990
   12.41444397  163.23899841    1.05999994    2.34999990
   12.41777802  164.61500549    1.05999994    2.34999990
   12.42083359  167.84899902    1.05999994    2.36999989
   12.42666721  167.84899902    1.05999994    2.36999989
   12.43083382  160.94799805    1.05999994    2.36999989
   12.43416691  156.77400208    1.05999994    2.36999989
   12.43722248  160.77799988    1.03999996    2.36999989
   12.44055557  159.23800659    1.05999994    2.36999989
   12.44388866  160.04899597    1.05999994    2.36999989
   12.44472218  171.12699890    1.03999996    2.36999989
   12.44750023  161.16200256    1.03999996    2.36999989
   12.45083332  160.93499756    1.05999994    2.36999989
   12.45388889  165.03399658    1.03999996    2.36999989
   12.45722198  170.60800171    1.03999996    2.36999989
   12.46027756  162.09399414    1.03999996    2.36999989
   12.46361065  160.14799500    1.03999996    2.36999989
   12.46944427  160.14799500    1.03999996    2.36999989
   12.47361088  162.42599487    1.03999996    2.36999989
   12.47694397  161.18400574    1.03999996    2.36999989
   12.47805500  160.09800720    1.03999996    2.36999989
   12.48055553  160.53900146    1.03999996    2.36999989
   12.48388958  153.90199280    1.03999996    2.39000010
   12.48694515  158.06300354    1.03999996    2.39000010
   12.49027824  157.34899902    1.03999996    2.39000010
   12.49333382  158.85699463    1.03999996    2.39000010
   12.49666691  159.89599609    1.03999996    2.39000010
   12.50000000  155.12899780    1.03999996    2.39000010
   12.50305557  163.56500244    1.01999998    2.39000010
   12.50638866  162.85099792    1.01999998    2.39000010
   12.51249981  162.85099792    1.01999998    2.39000010
   12.51638889  167.21400452    1.01999998    2.39000010
   12.51972198  164.42999268    1.00000000    2.40000010
   12.52305508  163.76400757    0.98000002    2.40000010
   12.52611065  165.09300232    1.00000000    2.40000010
   12.52944374  174.95899963    0.98000002    2.40000010
   12.53277779  160.52000427    1.00000000    2.40000010
   12.53583336  155.02299500    0.98000002    2.39000010
   12.53916740  157.37199402    0.98000002    2.39000010
   12.54222298  160.27900696    0.98000002    2.40000010
   12.54472256  154.05400085    0.95999998    2.40000010
   12.54583359  151.41799927    0.95999998    2.40000010
   12.54916668  165.01800537    0.95999998    2.40000010
   12.55555534  165.01800537    0.94000000    2.40000010
   12.55972195  161.82699585    0.94000000    2.40000010
   12.56305599  159.53700256    0.94000000    2.40000010
   12.56611156  155.17399597    0.94000000    2.40000010
   12.56944466  168.93899536    0.92000002    2.40000010
   12.57250023  157.97099304    0.92000002    2.40000010
   12.57583332  162.00700378    0.89999998    2.40000010
   12.57805538  164.48300171    0.89999998    2.40000010
   12.57944393  158.44900513    0.89999998    2.40000010
   12.58277798  162.08700562    0.89999998    2.40000010
   12.58583260  174.91400146    0.89999998    2.40000010
   12.58916664  160.31199646    0.89999998    2.42000008
   12.59249973  160.03100586    0.89999998    2.40000010
   12.59805489  160.03100586    0.89999998    2.40000010
   12.60222244  162.66200256    0.88000000    2.42000008
   12.60555553  164.38400269    0.88000000    2.42000008
   12.60861111  154.93600464    0.88000000    2.42000008
   12.61166668  163.53100586    0.88000000    2.42000008
   12.61250019  159.02200317    0.88000000    2.42000008
   12.61555576  156.58999634    0.88000000    2.42000008
   12.61888885  158.42700195    0.88000000    2.42000008
   12.62222195  151.99099731    0.88000000    2.42000008
   12.62527752  166.60499573    0.88000000    2.42000008
   12.62861156  156.55999756    0.88000000    2.42000008
   12.63166714  162.41999817    0.88000000    2.42000008
   12.63500023  155.33599854    0.88000000    2.42000008
   12.64083290  155.33599854    0.88000000    2.42000008
   12.64499950  171.81700134    0.86000001    2.42000008
   12.64833355  168.07400513    0.88000000    2.42000008
   12.65166664  163.09800720    0.88000000    2.42000008
   12.65499973  157.37100220    0.88000000    2.42000008
   12.65805531  171.85499573    0.86000001    2.42000008
   12.66138840  162.64900208    0.86000001    2.44000006
   12.66444397  159.85099792    0.86000001    2.44000006
   12.66777802  156.55099487    0.86000001    2.44000006
   12.67111111  160.32499695    0.86000001    2.42000008
   12.67416668  161.24200439    0.86000001    2.44000006
   12.67750072  157.61599731    0.83999997    2.44000006
   12.67805576  158.71000671    0.83999997    2.44000006
   12.68388939  158.71000671    0.83999997    2.42000008
   12.68805599  158.40499878    0.83999997    2.44000006
   12.69111156  163.08900452    0.83999997    2.44000006
   12.69444466  170.81500244    0.81999999    2.44000006
   12.69750023  164.08999634    0.81999999    2.44000006
   12.70083332  165.97999573    0.81999999    2.44000006
   12.70416641  170.51600647    0.83999997    2.46000004
   12.70722198  167.25900269    0.81999999    2.44000006
   12.71055508  163.12199402    0.81999999    2.46000004
   12.71138859  164.92700195    0.81999999    2.46000004
   12.71416664  176.25199890    0.81999999    2.44000006
   12.71749973  155.43899536    0.81999999    2.46000004
   12.72055531  162.06500244    0.80000001    2.44000006
   12.72666645  162.06500244    0.80000001    2.44000006
   12.73083305  161.98500061    0.80000001    2.44000006
   12.73388958  156.28599548    0.80000001    2.46000004
   12.73722267  162.29499817    0.80000001    2.46000004
   12.74055576  155.98599243    0.81999999    2.46000004
   12.74361134  160.91900635    0.80000001    2.46000004
   12.74499989  153.45100403    0.80000001    2.46000004
   12.74722290  160.27900696    0.80000001    2.46000004
   12.75055599  165.01100159    0.80000001    2.46000004
   12.75361156  160.19099426    0.80000001    2.46000004
   12.75694466  160.74099731    0.80000001    2.46000004
   12.76027775  157.22300720    0.79000002    2.46000004
   12.76333332  157.94000244    0.79000002    2.46000004
   12.76944447  157.94000244    0.79000002    2.46000004
   12.77361107  165.72700500    0.80000001    2.46000004
   12.77694416  161.69599915    0.80000001    2.46000004
   12.77805519  161.55999756    0.80000001    2.46000004
   12.78027725  164.86700439    0.80000001    2.46000004
   12.78361130  155.77299500    0.80000001    2.46000004
   12.78666687  163.25399780    0.80000001    2.46000004
   12.79000092  162.12699890    0.79000002    2.46000004
   12.79333401  165.36300659    0.79000002    2.46000004
   12.79638958  164.56399536    0.79000002    2.46000004
   12.79972267  156.22599792    0.79000002    2.46000004
   12.80277824  164.13600159    0.76999998    2.46000004
   12.80611134  159.04499817    0.76999998    2.46000004
   12.81222248  159.04499817    0.76999998    2.48000002
   12.81638908  163.43699646    0.76999998    2.46000004
   12.81972218  161.93800354    0.75000000    2.46000004
   12.82277775  165.13400269    0.75000000    2.46000004
   12.82611084  164.72000122    0.75000000    2.48000002
   12.82944393  163.24600220    0.75000000    2.48000002
   12.83249950  163.93899536    0.75000000    2.48000002
   12.83583260  158.84700012    0.75000000    2.48000002
   12.83916664  158.69599915    0.75000000    2.48000002
   12.84222221  161.29400635    0.75000000    2.48000002
   12.84472179  163.01400757    0.75000000    2.46000004
   12.84583282  167.43400574    0.75000000    2.46000004
   12.84916592  166.68499756    0.75000000    2.48000002
   12.85527802  166.68499756    0.75000000    2.48000002
   12.85916710  165.08700562    0.75000000    2.48000002
   12.86250019  160.11900330    0.75000000    2.48000002
   12.86583328  163.94999695    0.75000000    2.48000002
   12.86916637  167.04899597    0.75000000    2.48000002
   12.87250042  170.07800293    0.75000000    2.48000002
   12.87555599  167.25900269    0.75000000    2.48000002
   12.87805557  164.80400085    0.73000002    2.48000002
   12.87916660  167.30900574    0.73000002    2.48000002
   12.88249969  160.11999512    0.73000002    2.48000002
   12.88555527  162.98699951    0.73000002    2.48000002
   12.88888836  166.54499817    0.73000002    2.48000002
   12.89222240  161.61199951    0.73000002    2.48000002
   12.89805508  161.61199951    0.73000002    2.50000000
   12.90222168  161.49299622    0.70999998    2.48000002
   12.90527725  160.66799927    0.70999998    2.50000000
   12.90861034  169.73699951    0.70999998    2.50000000
   12.91138840  164.30599976    0.70999998    2.50000000
   12.91222191  167.05200195    0.70999998    2.48000002
   12.91555500  162.12100220    0.70999998    2.48000002
   12.91861153  165.27000427    0.70999998    2.48000002
   12.92194462  169.35899353    0.70999998    2.50000000
   12.92527771  163.97599792    0.70999998    2.50000000
   12.92833328  167.48199463    0.70999998    2.48000002
   12.93166733  164.65400696    0.69000000    2.50000000
   12.93472195  159.30299377    0.69000000    2.50000000
   12.94083309  159.30299377    0.69000000    2.50000000
   12.94499969  164.65499878    0.69000000    2.50000000
   12.94833374  158.10600281    0.69000000    2.50000000
   12.95138836  163.66700745    0.69000000    2.50000000
   12.95472240  160.42999268    0.69000000    2.50000000
   12.95777798  162.20199585    0.69000000    2.50000000
   12.96111107  167.44999695    0.69000000    2.51999998
   12.96444416  163.93499756    0.69000000    2.51999998
   12.96749973  164.27999878    0.69000000    2.51999998
   12.97111034  167.83099365    0.69000000    2.51999998
   12.97444439  157.91299438    0.69000000    2.50000000
   12.97777748  167.18200684    0.69000000    2.50000000
   12.97833252  159.21400452    0.69000000    2.50000000
   12.99916649  159.21400452    0.69000000    2.51999998
   13.00333309  162.94900513    0.69000000    2.51999998
   13.00638866  162.29699707    0.69000000    2.51999998
   13.00972176  155.34599304    0.69000000    2.51999998
   13.01166630  157.92100525    0.69000000    2.51999998
   13.01333332  160.48899841    0.69000000    2.51999998
   13.01666641  164.10299683    0.69000000    2.50000000
   13.01972198  162.06799316    0.69000000    2.51999998
   13.02305508  166.58000183    0.69000000    2.51999998
   13.02611065  160.93200684    0.70999998    2.51999998
   13.02944374  159.50399780    0.69000000    2.51999998
   13.03277779  155.27000427    0.69000000    2.51999998
   13.03583336  161.44299316    0.69000000    2.51999998
   13.04194450  161.44299316    0.70999998    2.51999998
   13.04583359  168.74099731    0.69000000    2.51999998
   13.04916668  166.03500366    0.69000000    2.51999998
   13.05249977  158.39599609    0.70999998    2.51999998
   13.05555534  161.13099670    0.69000000    2.51999998
   13.05888939  164.11399841    0.69000000    2.51999998
   13.06222248  161.76300049    0.67000002    2.51999998
   13.06527805  166.64900208    0.67000002    2.51999998
   13.06861115  162.16400146    0.69000000    2.51999998
   13.07166672  166.30000305    0.67000002    2.51999998
   13.07499981  166.49000549    0.69000000    2.53999996
   13.07833290  170.96299744    0.67000002    2.51999998
   13.07861137  170.52000427    0.67000002    2.51999998
   13.08472157  170.52000427    0.69000000    2.51999998
   13.08888817  165.79899597    0.69000000    2.53999996
   13.09222221  169.01100159    0.67000002    2.51999998
   13.09527779  172.15699768    0.67000002    2.51999998
   13.09861088  181.69099426    0.67000002    2.53999996
   13.10194492  169.90299988    0.67000002    2.53999996
   13.10500050  167.50199890    0.69000000    2.53999996
   13.10833359  182.18200684    0.67000002    2.53999996
   13.11166668  189.07400513    0.67000002    2.53999996
   13.11222267  167.49800110    0.67000002    2.53999996
   13.11500072  166.52000427    0.67000002    2.53999996
