    HOUR (UT)   FLARE FACTOR    SKY TESTER    SUN TESTER
   17.77861023   -1.00000000   -1.00000000   -1.00000000
   17.84833336  261.32501221    4.90999985    2.03999996
   17.85166740  273.42700195    4.90999985    2.07999992
   17.85472298  165.10000610    4.90999985    2.09999990
   17.85805511  130.68600464    4.90999985    1.88000000
   17.86138916  119.65299988    4.90999985    1.75000000
   17.86444473  121.78600311    4.90999985    1.80999994
   17.86861038  121.78600311    4.90999985    1.78999996
   17.87277794  135.24800110    4.90999985    1.66999996
   17.87611198  166.14500427    4.90999985    1.76999998
   17.87916756  250.74400330    4.90999985    1.89999998
   17.88166618  187.26699829    4.90999985    2.05999994
   17.88277817  213.76499939    4.90999985    2.17000008
   17.88583374  140.72700500    4.90999985    2.36999989
   17.88916588  133.72099304    4.90999985    2.44000006
   17.89249992  153.55999756    4.90999985    2.48000002
   17.89555550  148.31700134    4.90999985    2.51999998
   17.89888954  204.86599731    4.90999985    2.40000010
   17.90194321   -1.00000000    4.90999985    1.86000001
   17.90527725  109.55699921    4.90999985    1.63000000
   17.91138840  109.55699921    4.90999985    1.78999996
   17.91555595  167.54499817    4.90999985    1.96000004
   17.91888809  140.63400269    4.90999985    2.36999989
   17.92194366  141.43800354    4.90999985    2.51999998
   17.92527771  122.69400024    4.90999985    2.36999989
   17.92860985  125.01000214    4.90999985    2.55999994
   17.93166542  149.31799316    4.90999985    2.55999994
   17.93499947  178.89199829    4.90999985    2.23000002
   17.93833160  124.68900299    4.90999985    2.40000010
   17.94138718  162.33500671    4.90999985    2.61999989
   17.94472122  148.98800659    4.90999985    2.21000004
   17.94777679  132.67500305    4.90999985    2.42000008
   17.94833183  142.19200134    4.90999985    2.34999990
   17.95416832  142.19200134    4.90999985    2.39000010
   17.95833397  125.73699951    4.90999985    2.21000004
   17.96166801  132.47799683    4.90999985    2.39000010
   17.96500015  137.55599976    4.90999985    2.59999990
   17.96805573  139.83799744    4.90999985    2.50000000
   17.97138977  136.64500427    4.90999985    2.13000011
   17.97472191   -1.00000000    4.90999985    1.61000001
   17.97777748  113.86900330    4.90999985    1.60000002
   17.98111153  149.58599854    4.90999985    1.76999998
   17.98166656  225.73599243    4.90999985    1.76999998
   17.98472214  183.37600708    4.90999985    1.98000002
   17.98777771  125.43299866    4.90999985    2.39000010
   17.99111176  119.78299713    4.90999985    2.64000010
   17.99722290  119.78299713    3.97000003    2.67000008
   18.00138855  112.35199738    2.39000010    2.69000006
   18.00444412  110.86699677    3.46000004    2.69000006
   18.00777817  120.45600128    4.00000000    2.67000008
   18.01111031  108.82199860    4.42999983    2.67000008
   18.01444435  107.63899994    4.90999985    2.67000008
   18.01499939  106.99600220    4.90999985    2.67000008
   18.01805496  115.20800018    4.90999985    2.69000006
   18.02111053  115.74600220    4.90999985    2.64000010
   18.02444458  127.06999969    4.90999985    2.61999989
   18.02777672  116.18399811    4.90999985    2.50000000
   18.03083229  115.01999664    4.90999985    2.66000009
   18.03416634  113.66400146    4.65999985    2.67000008
   18.03999901  113.66400146    2.73000002    2.67000008
   18.04416656  112.90000153    4.71999979    2.66000009
   18.04749870  114.33200073    4.90999985    2.67000008
   18.04833221  114.87400055    4.90999985    2.67000008
   18.05111122  126.16999817    4.90999985    2.59999990
   18.05444336  119.57499695    4.90999985    2.57999992
   18.05749893  118.85199738    4.90999985    2.42000008
   18.06083298  114.15200043    4.90999985    2.71000004
   18.06388855  181.42599487    4.90999985    2.71000004
   18.06722260  157.85000610    4.90999985    2.09999990
   18.07055664  114.20700073    4.90999985    2.69000006
   18.07361221  114.11000061    4.65999985    2.67000008
   18.07694626  111.63600159    3.00000000    2.69000006
   18.08277893  111.63600159    4.90999985    2.71000004
   18.08694458  120.69499969    4.90999985    2.36999989
   18.09027863  194.62199402    4.90999985    2.36999989
   18.09333420  154.38400269    4.90999985    2.09999990
   18.09666824   -1.00000000    4.90999985    1.63000000
   18.10000038   -1.00000000    4.90999985    1.34000003
   18.10305595   -1.00000000    4.90999985    1.30999994
   18.10639000   -1.00000000    4.90999985    1.66999996
   18.10972214   -1.00000000    4.90999985    1.34000003
   18.11277771   -1.00000000    4.90999985    1.30999994
   18.11638832   -1.00000000    4.90999985    1.48000002
   18.11944389   -1.00000000    4.90999985    1.30999994
   18.12555504   -1.00000000    4.90999985    1.36000001
   18.12972260   -1.00000000    4.90999985    1.55999994
   18.13305473   -1.00000000    4.90999985    1.69000006
   18.13638878   -1.00000000    4.90999985    1.61000001
   18.13944435   88.52120209    4.90999985    1.80999994
   18.14277840   -1.00000000    4.90999985    1.91999996
   18.14583397   -1.00000000    4.90999985    1.51999998
   18.14944458   -1.00000000    4.90999985    0.92000002
   18.15250015   -1.00000000    4.90999985    0.63000000
   18.15583229   -1.00000000    4.90999985    0.63000000
   18.15916634   -1.00000000    4.90999985    1.05999994
   18.16222191   -1.00000000    4.90999985    1.46000004
   18.16860962   -1.00000000    4.90999985    1.98000002
   18.17277718  244.28700256    4.90999985    2.15000010
   18.17583275   -1.00000000    4.90999985    1.83000004
   18.17916679   -1.00000000   -1.00000000   -1.00000000
   18.18166542  173.59700012    4.90999985    1.64999998
   18.18277740  143.78399658    4.90999985    1.91999996
   18.18610954  142.58299255    4.90999985    2.57999992
   18.18916512  211.97099304    4.90999985    2.32999992
   18.19249916  172.60400391    4.90999985    1.96000004
   18.19555473  119.14199829    4.90999985    2.51999998
   18.19888878  122.61499786    4.90999985    2.61999989
   18.20222282  115.17500305    4.90999985    2.64000010
   18.20527840  113.88899994    4.90999985    2.67000008
   18.21138954  113.88899994    3.34999990    2.66000009
   18.21555710  107.32900238    2.78999996    2.67000008
   18.21861076  107.09899902    1.60000002    2.67000008
   18.22194481  109.91899872    1.53999996    2.67000008
   18.22527885  111.13300323    1.53999996    2.67000008
   18.22833443  109.55400085    1.48000002    2.67000008
   18.23166656  114.54199982    1.60000002    2.66000009
   18.23500061  116.72899628    2.19000006    2.67000008
   18.23805618  113.71900177    3.32999992    2.59999990
   18.24138832  119.05200195    4.76000023    2.64000010
   18.24444389  112.10299683    2.39000010    2.66000009
   18.24777794  113.81900024    4.13999987    2.69000006
   18.24833298  109.90599823    4.13999987    2.69000006
   18.25416756  109.90599823    4.90999985    2.48000002
   18.25833321  132.46699524    4.90999985    2.26999998
   18.26138878  184.75799561    4.90999985    2.32999992
   18.26472282  122.43299866    4.90999985    2.21000004
   18.26805496  112.03700256    4.90999985    2.51999998
   18.27166557  111.88600159    4.90999985    2.64000010
   18.27472115  111.32800293    3.78999996    2.64000010
   18.27833366  108.87999725    3.45000005    2.66000009
   18.28166580  109.30799866    2.80999994    2.67000008
   18.28194427  116.13300323    2.53999996    2.66000009
   18.28527641  109.23100281    2.09999990    2.67000008
   18.28861046  108.79399872    2.48000002    2.67000008
   18.29166603  106.14199829    2.28999996    2.67000008
   18.29694366  106.14199829    2.17000008    2.67000008
   18.30111122  107.73200226    2.05999994    2.67000008
   18.30444336  104.51899719    2.03999996    2.66000009
   18.30749893  109.48799896    1.89999998    2.66000009
   18.31083298  106.08599854    1.83000004    2.67000008
   18.31416512  105.96700287    1.69000006    2.66000009
   18.31527710  110.58000183    1.63000000    2.67000008
   18.31777954  110.26499939    1.55999994    2.67000008
   18.32111168  110.04900360    1.50000000    2.66000009
   18.32416725  111.55500031    1.33000004    2.67000008
   18.32750130  103.72399902    1.25000000    2.67000008
   18.33055687  112.71199799    1.25000000    2.66000009
   18.33388901  109.06999969    1.46000004    2.67000008
   18.33972359  109.06999969    1.69000006    2.67000008
   18.34388924  107.34600067    1.91999996    2.67000008
   18.34722328  106.12899780    1.96000004    2.66000009
   18.34889030  108.79100037    2.00000000    2.66000009
   18.35083389  108.80699921    2.00000000    2.67000008
   18.35416794  107.41300201    2.11999989    2.67000008
   18.35722351  108.16799927    1.94000006    2.66000009
   18.36055565  108.36799622    1.98000002    2.66000009
   18.36388969  111.03099823    2.19000006    2.66000009
   18.36694527  102.32900238    2.19000006    2.66000009
   18.37027740  107.81400299    2.01999998    2.66000009
   18.37361145  109.01599884    1.94000006    2.66000009
   18.37666702  111.25399780    1.86000001    2.67000008
   18.38277817  111.25399780    1.85000002    2.67000008
   18.38694382  111.46299744    2.26999998    2.66000009
   18.38999939  110.70400238    2.39000010    2.66000009
   18.39333344  103.56700134    2.44000006    2.66000009
   18.39638901  110.27300262    2.61999989    2.64000010
   18.39972115  113.10399628    2.59999990    2.64000010
   18.40305519  111.97699738    2.48000002    2.66000009
   18.40611076  102.90799713    2.36999989    2.66000009
   18.40944481  107.55100250    2.30999994    2.66000009
   18.41277695  111.36900330    2.28999996    2.66000009
   18.41555595  110.18699646    2.15000010    2.66000009
   18.41611099  110.29299927    2.09999990    2.66000009
   18.41944313  106.65399933    4.90999985    2.67000008
   18.42555428  106.65399933    1.86000001    2.66000009
   18.42972183  111.70400238    1.88000000    2.66000009
   18.43305397  111.31099701    1.89999998    2.66000009
   18.43638802  106.47499847    1.89999998    2.66000009
   18.43944359  108.14600372    1.85000002    2.66000009
   18.44277763  109.59899902    1.80999994    2.66000009
   18.44583321  114.19200134    1.73000002    2.66000009
   18.44888878  109.39600372    1.64999998    2.66000009
   18.44944382  107.69699860    1.64999998    2.66000009
   18.45277786  109.21900177    1.63000000    2.67000008
   18.45611191  108.34500122    1.63000000    2.67000008
   18.45916748  107.88999939    1.58000004    2.66000009
   18.46250153  110.67900085    1.55999994    2.66000009
   18.46833420  110.67900085    1.38000000    2.67000008
   18.47249985  110.62500000    1.38000000    2.66000009
   18.47583389  111.41699982    1.44000006    2.66000009
   18.47916794  112.37699890    1.39999998    2.66000009
   18.48222351  110.46900177    1.38000000    2.66000009
   18.48250008  111.48899841    1.36000001    2.67000008
   18.48583412  109.80799866    1.39999998    2.67000008
   18.48916626  106.96900177    1.41999996    2.67000008
   18.49222183  108.23400116    1.55999994    2.67000008
   18.49555588  107.35700226    1.71000004    2.66000009
   18.49888992  109.40599823    1.73000002    2.67000008
   18.50194359  108.24700165    1.78999996    2.66000009
   18.50527763  106.98999786    1.76999998    2.66000009
   18.51138878  106.98999786    1.60000002    2.66000009
   18.51555634  105.39900208    1.58000004    2.66000009
   18.51583290  111.68599701    1.58000004    2.66000009
   18.51916695  110.32700348    2.28999996    2.67000008
   18.52249908  109.03500366    2.05999994    2.67000008
   18.52555466  121.23400116    2.13000011    2.69000006
   18.52888870  115.10299683    4.90999985    2.69000006
   18.53194427  192.13299561    4.90999985    2.69000006
   18.53527641  117.87000275    4.90999985    2.03999996
   18.53861046   96.37020111    4.90999985    2.67000008
   18.54166603   -1.00000000    4.90999985    2.03999996
   18.54500008  133.16999817    4.90999985    1.41999996
   18.54833221  153.78399658    4.90999985    2.15000010
   18.54916573  140.82899475    4.90999985    1.33000004
   18.55833244   -1.00000000    4.90999985    0.51999998
   18.56138802  143.75000000    4.90999985    0.79000002
   18.56472206  134.14300537    4.90999985    2.73000002
   18.56805611  135.82299805    1.85000002    2.69000006
   18.57111168  136.12699890    4.90999985    2.66000009
   18.57444572  133.65899658    4.09999990    2.67000008
   18.57750130  133.83000183    2.78999996    2.67000008
   18.58083344  135.26800537    2.23000002    2.66000009
   18.58250046  132.06399536    2.30999994    2.67000008
   18.58444595  149.68600464    2.39000010    2.66000009
   18.58777809  137.67799377    2.64000010    2.67000008
   18.59083366  168.97200012    2.91000009    2.66000009
   18.59694481  168.97200012    2.94000006    2.66000009
   18.60111237  156.01400757    2.86999989    2.64000010
   18.60444450  144.77600098    2.80999994    2.66000009
   18.60750008  163.00300598    2.86999989    2.64000010
   18.61083412  163.77999878    2.78999996    2.66000009
   18.61416626  155.77299500    2.46000004    2.66000009
   18.61583328  148.80400085    2.21000004    2.66000009
   18.61777878  157.09300232    2.11999989    2.66000009
   18.62111092  161.76699829    2.07999992    2.67000008
   18.62416649  171.98899841    2.01999998    2.67000008
   18.62750053  149.05499268    2.03999996    2.66000009
   18.63055611  166.33700562    2.07999992    2.67000008
   18.63388824  180.25799561    2.01999998    2.66000009
   18.63972282  180.25799561    2.17000008    2.66000009
   18.64388847  151.77699280    2.23000002    2.66000009
   18.64722252  158.97200012    2.19000006    2.67000008
   18.64916611  167.05000305    2.17000008    2.67000008
   18.65083313  157.26800537    2.11999989    2.67000008
   18.65416718  157.79499817    1.86000001    2.67000008
   18.65722275  167.35600281    1.28999996    2.67000008
   18.66055489  159.59199524    1.26999998    2.67000008
   18.66388893  152.11300659    1.28999996    2.67000008
   18.66694450  156.81100464    1.50000000    2.66000009
   18.67027664  149.92300415    1.60000002    2.67000008
   18.67333221  152.61700439    1.78999996    2.66000009
   18.67666626  163.90699768    2.03999996    2.67000008
   18.68277740  163.90699768    2.17000008    2.67000008
   18.68694305  178.32299805    3.01999998    2.66000009
   18.68999863  166.17999268    3.20000005    2.67000008
   18.69333267  172.60099792    3.25000000    2.67000008
   18.69638824  160.83099365    3.25000000    2.66000009
   18.69972038  164.67799377    3.28999996    2.66000009
   18.70305634  166.91499329    3.51999998    2.66000009
   18.70611191  157.92999268    3.93000007    2.66000009
   18.70944595  148.53500366    4.23999977    2.67000008
   18.71250153  157.13900757    4.57999992    2.66000009
   18.71583366  162.50000000    4.90999985    2.66000009
   18.71638870  166.90899658    4.90999985    2.66000009
   18.71972275  165.41200256    4.90999985    2.64000010
   18.72555542  165.41200256    4.90999985    2.64000010
   18.72972298  159.59100342    4.90999985    2.57999992
   18.73277855  164.20599365    4.90999985    2.61999989
   18.73611069  161.89999390    4.90999985    2.59999990
   18.73944473  145.38499451    4.90999985    2.61999989
   18.74250031  160.97500610    4.90999985    2.59999990
   18.74583435  164.41999817    4.90999985    2.64000010
   18.74888992  162.13900757    4.90999985    2.64000010
   18.74972153  167.58099365    4.90999985    2.64000010
   18.75277710  153.50100708    4.90999985    2.57999992
   18.75583267  161.12600708    4.90999985    2.59999990
   18.75916672  167.44999695    4.90999985    2.61999989
   18.76222229  185.63099670    4.90999985    2.51999998
   18.76833344  185.63099670    4.90999985    2.44000006
   18.77249908  294.73001099    4.90999985    2.21000004
   18.77583313  421.13101196    4.90999985    2.09999990
   18.77777672  404.51901245    4.90999985    1.96000004
   18.77888870  429.20599365    4.90999985    1.94000006
   18.78027725  440.02899170    4.90999985    1.96000004
   18.78166580  421.24899292    4.90999985    2.00000000
   18.78305435  438.46499634    4.90999985    2.07999992
   18.78444481  471.76098633    4.90999985    2.07999992
   18.78583336  452.71701050    4.90999985    2.03999996
   18.78722191  492.32000732    4.90999985    2.01999998
   18.78861046  381.98001099    4.90999985    2.01999998
   18.78999901  429.71099854    4.90999985    2.05999994
   18.79138756  438.83999634    4.90999985    2.05999994
   18.79277802  403.87200928    4.90999985    2.05999994
   18.79416656  295.32199097    4.90999985    2.13000011
   18.79555511  297.82901001    4.90999985    2.13000011
   18.79694366  404.34500122    4.90999985    2.11999989
   18.79833221  328.66500854    4.90999985    2.11999989
   18.79972076  473.96600342    4.90999985    2.11999989
   18.80111122  460.98400879    4.90999985    2.05999994
   18.80249977  541.19097900    4.90999985    2.01999998
   18.80388832  519.00097656    4.90999985    2.01999998
   18.80527687  508.03900146    4.90999985    2.05999994
   18.80666542  339.43600464    4.90999985    2.05999994
   18.80805397  363.26501465    4.90999985    2.03999996
   18.80944443  404.77899170    4.90999985    1.98000002
   18.81083298  462.98300171    4.90999985    2.00000000
   18.81222153  400.39099121    4.90999985    2.01999998
   18.81361008  479.69000244    4.90999985    2.03999996
   18.81499863  371.49499512    4.90999985    2.03999996
   18.81638718  378.87701416    4.90999985    2.07999992
   18.81777954  420.84100342    4.90999985    2.07999992
   18.81916809  425.43899536    4.90999985    2.00000000
   18.82055664  373.06799316    4.90999985    2.00000000
   18.82194519  395.14801025    4.90999985    2.03999996
   18.82333374  368.27700806    4.90999985    2.11999989
   18.82472229  397.53900146    4.90999985    2.13000011
   18.82611275  480.37200928    4.90999985    2.15000010
   18.82750130  466.76300049    4.90999985    2.07999992
   18.82888985  397.25500488    4.90999985    2.05999994
   18.83027840  363.11499023    4.90999985    2.09999990
   18.83166695  422.23800659    4.90999985    2.13000011
   18.83305550  391.33499146    4.90999985    2.13000011
   18.83444595  331.68099976    4.90999985    2.11999989
   18.83583450  342.99700928    4.90999985    2.13000011
   18.83722305  293.02801514    4.90999985    2.15000010
   18.83861160  292.16101074    4.90999985    2.19000006
   18.84000015  293.89401245    4.90999985    2.21000004
   18.84138870  310.45901489    4.90999985    2.23000002
   18.84277916  289.62100220    4.90999985    2.25000000
   18.84416771  286.58999634    4.90999985    2.26999998
   18.84555626  224.90100098    4.90999985    2.26999998
   18.84583473  167.44999695    4.90999985    2.61999989
   18.84583473  185.63099670    4.90999985    2.51999998
   18.84583473  294.73001099    4.90999985    2.21000004
   18.84583473  421.13101196    4.90999985    2.09999990
   18.84583473  160.97500610    4.90999985    2.59999990
   18.84611130  164.41999817    4.90999985    2.64000010
   18.84611130  162.13900757    4.90999985    2.64000010
   18.84611130  153.50100708    4.90999985    2.57999992
   18.84611130  161.12600708    4.90999985    2.59999990
   18.84666824  234.68299866    4.90999985    2.30999994
   18.86916733  234.68299866    4.90999985    2.25000000
   18.87333298  185.82699585    4.90999985    2.39000010
