    HOUR (UT)   FLARE FACTOR    SKY TESTER    SUN TESTER
   11.73166656   -1.00000000   -1.00000000   -1.00000000
   12.02944374  200.48199463    0.00000000    0.00000000
   12.03277779  200.20599365    0.00000000    0.00000000
   12.03611183  207.20899963    0.00000000    0.00000000
   12.03944492  207.90899658    0.00000000    0.00000000
   12.04277802  196.91700745    0.00000000    0.00000000
   12.04583359  185.41099548    0.00000000    0.00000000
   12.05000019  185.41099548    0.00000000    0.00000000
   12.05416679  176.34800720    0.00000000    0.00000000
   12.05749989  174.16200256    1.83000004    1.76999998
   12.06083393  181.10800171    1.83000004    1.76999998
   12.06277752  182.48599243    1.83000004    1.76999998
   12.06444454  173.55400085    1.83000004    1.76999998
   12.06777763  170.97399902    1.83000004    1.76999998
   12.07083321  176.12800598    1.83000004    1.76999998
   12.07416630  165.92500305    1.83000004    1.76999998
   12.07750034  172.77999878    1.83000004    1.76999998
   12.08083344  170.26300049    1.83000004    1.76999998
   12.08388901  174.20799255    1.83000004    1.76999998
   12.08722210  174.64799500    1.83000004    1.76999998
   12.09277725  174.64799500    1.83000004    1.76999998
   12.09694386  163.88200378    1.83000004    1.76999998
   12.10055637  174.60899353    1.83000004    1.76999998
   12.10361195  194.04699707    1.83000004    1.76999998
   12.10694504  182.25500488    1.83000004    1.76999998
   12.11027813  168.74899292    1.83000004    1.76999998
   12.11361122  179.69099426    1.83000004    1.76999998
   12.11666679  171.29100037    1.83000004    1.76999998
   12.12055588  183.88200378    1.83000004    1.76999998
   12.12361145  176.23699951    1.83000004    1.76999998
   12.12694454  163.22399902    1.83000004    1.76999998
   12.12944412  163.74099731    1.83000004    1.76999998
   12.13055611  165.62199402    1.83000004    1.76999998
   12.13583279  165.62199402    1.83000004    1.76999998
   12.14000034  155.25599670    1.83000004    1.76999998
   12.14333344  154.18099976    1.83000004    1.76999998
   12.14666653  164.94900513    1.83000004    1.76999998
   12.14999962  166.19599915    1.83000004    1.76999998
   12.15305519  156.75999451    1.83000004    1.76999998
   12.15638828  161.83799744    1.83000004    1.76999998
   12.15972137  157.45199585    1.83000004    1.76999998
   12.16277695  149.44700623    1.83000004    1.76999998
   12.16333294  154.76800537    1.83000004    1.76999998
   12.16666698  163.90100098    1.83000004    1.76999998
   12.17000008  159.30799866    1.83000004    1.76999998
   12.17333412  165.79800415    1.83000004    1.76999998
   12.17861176  165.79800415    1.83000004    1.76999998
   12.18277836  153.49400330    1.83000004    1.76999998
   12.18611145  164.96600342    1.83000004    1.76999998
   12.18944454  146.09300232    1.83000004    1.76999998
   12.19250011  148.54400635    1.83000004    1.76999998
   12.19583321  150.79899597    1.83000004    1.76999998
   12.19638920  159.74200439    1.83000004    1.76999998
   12.19972229  155.97999573    1.83000004    1.76999998
   12.20277786  149.10699463    1.83000004    1.76999998
   12.20611095  166.88200378    1.83000004    1.76999998
   12.20944405  154.32299805    1.83000004    1.76999998
   12.21277714  160.58200073    1.83000004    1.76999998
   12.21583271  168.37199402    1.83000004    1.76999998
   12.22138882  168.37199402    1.83000004    1.76999998
   12.22555542  165.13900757    1.83000004    1.76999998
   12.22888851  151.71899414    1.83000004    1.76999998
   12.22972202  154.84100342    1.83000004    1.76999998
   12.23249912  155.06100464    1.83000004    1.76999998
   12.23583317  180.08000183    1.83000004    1.76999998
   12.23888874  150.83500671    1.83000004    1.76999998
   12.24222279  154.38600159    1.83000004    1.76999998
   12.24555588  152.10200500    1.83000004    1.76999998
   12.24888897  163.83299255    1.83000004    1.76999998
   12.25194454  170.34700012    1.83000004    1.76999998
   12.25527763  162.90400696    1.83000004    1.76999998
   12.25861073  170.16999817    1.83000004    1.76999998
   12.26416683  170.16999817    1.83000004    1.76999998
   12.26861095  155.50900269    1.83000004    1.76999998
   12.27166653  155.30999756    1.83000004    1.76999998
   12.27499962  160.92199707    1.83000004    1.76999998
   12.27833271  160.93600464    1.83000004    1.76999998
   12.28166676  157.29699707    1.83000004    1.76999998
   12.28472233  162.83299255    1.83000004    1.76999998
   12.28805637  156.34700012    1.83000004    1.76999998
   12.29138947  148.44900513    1.83000004    1.76999998
   12.29472256  144.97000122    1.83000004    1.76999998
   12.29638958  151.69299316    1.83000004    1.76999998
   12.29833412  151.16099548    1.83000004    1.76999998
   12.30166721  155.44599915    1.83000004    1.76999998
   12.30722237  155.44599915    1.83000004    1.76999998
   12.31138897  152.11700439    1.83000004    1.76999998
   12.31444454  161.91000366    1.83000004    1.76999998
   12.31777763  154.16900635    1.83000004    1.76999998
   12.32111073  151.38600159    1.83000004    1.76999998
   12.32444477  148.80400085    1.83000004    1.76999998
   12.32777786  146.63200378    1.83000004    1.76999998
   12.32972240  146.20199585    1.83000004    1.76999998
   12.33138847  146.17300415    1.83000004    1.76999998
   12.33472157  147.95100403    1.83000004    1.76999998
   12.33805561  142.98899841    1.83000004    1.76999998
   12.34138870  158.31799316    1.83000004    1.76999998
   12.34444427  150.29499817    1.83000004    1.76999998
   12.35000038  150.29499817    1.83000004    1.76999998
   12.35416698  147.79899597    1.83000004    1.76999998
   12.35750008  148.67500305    1.83000004    1.76999998
   12.36083412  144.84899902    1.83000004    1.76999998
   12.36305618  159.82699585    1.83000004    1.76999998
   12.36444473  149.88299561    1.83000004    1.76999998
   12.36777782  148.70700073    1.83000004    1.76999998
   12.37083340  148.90100098    1.83000004    1.76999998
   12.37416649  153.15699768    1.83000004    1.76999998
   12.37750053  158.59700012    1.83000004    1.76999998
   12.38083363  159.31799316    1.83000004    1.76999998
   12.38388920  153.24899292    1.83000004    1.76999998
   12.38722229  148.87399292    1.83000004    1.76999998
   12.39277744  148.87399292    1.83000004    1.76999998
   12.39694405  142.76800537    1.83000004    1.76999998
   12.40027714  145.73899841    1.83000004    1.76999998
   12.40361118  150.57499695    1.83000004    1.76999998
   12.40666676  146.41200256    1.83000004    1.76999998
   12.40999985  143.62500000    1.83000004    1.76999998
   12.41333294  142.61700439    1.83000004    1.76999998
   12.41666698  140.72000122    1.83000004    1.76999998
   12.41972256  146.50399780    1.83000004    1.76999998
   12.42305565  138.81599426    1.83000004    1.76999998
   12.42638874  137.56300354    1.83000004    1.76999998
   12.42972279  147.30599976    1.83000004    1.76999998
   12.43027782  144.99499512    1.83000004    1.76999998
   12.43555546  144.99499512    1.83000004    1.76999998
   12.44000053  146.99099731    1.83000004    1.76999998
   12.44305515  146.90199280    1.83000004    1.76999998
   12.44638920  143.75199890    1.83000004    1.76999998
   12.44972229  142.94700623    1.83000004    1.76999998
   12.45305538  137.97900391    1.83000004    1.76999998
   12.45611095  147.08599854    1.83000004    1.76999998
   12.45944405  155.31399536    1.83000004    1.76999998
   12.46277714  157.60600281    1.83000004    1.76999998
   12.46361065  143.61799622    1.83000004    1.76999998
   12.46666622  150.46800232    1.83000004    1.76999998
   12.46972179  149.40100098    1.83000004    1.76999998
   12.47305489  146.69500732    1.83000004    1.76999998
   12.47861099  146.69500732    1.83000004    1.76999998
   12.48277760  142.70500183    1.83000004    1.76999998
   12.48583317  147.49899292    1.83000004    1.76999998
   12.48916721  149.49299622    1.83000004    1.76999998
   12.49250031  147.79600525    1.83000004    1.76999998
   12.49583340  147.26800537    1.83000004    1.76999998
   12.49694443  150.68499756    1.83000004    1.76999998
   12.49944496  149.42199707    1.83000004    1.76999998
   12.50249958  147.52299500    1.83000004    1.76999998
   12.50583363  146.73699951    1.83000004    1.76999998
   12.50916672  149.31500244    1.83000004    1.76999998
   12.51249981  147.46800232    1.83000004    1.76999998
   12.51583290  146.50300598    1.83000004    1.76999998
   12.52138901  146.50300598    1.83000004    1.76999998
   12.52555561  147.86399841    1.83000004    1.76999998
   12.52888870  154.14300537    1.83000004    1.76999998
   12.53027725  150.68699646    1.83000004    1.76999998
   12.53249931  147.70599365    1.83000004    1.76999998
   12.53555584  150.22099304    1.83000004    1.76999998
   12.53888893  144.90400696    1.83000004    1.76999998
   12.54222298  151.46699524    1.83000004    1.76999998
   12.54555607  144.86300659    1.83000004    1.76999998
   12.54861164  144.74899292    1.83000004    1.76999998
   12.55194473  147.25500488    1.83000004    1.76999998
   12.55583382  146.59100342    1.83000004    1.76999998
   12.55916691  132.51699829    1.83000004    1.76999998
   12.56416702  132.51699829    1.83000004    1.76999998
   12.56833363  134.81100464    1.83000004    1.76999998
   12.57166672  138.15100098    1.83000004    1.76999998
   12.57499981  133.19299316    1.83000004    1.76999998
   12.57833290  137.93800354    1.83000004    1.76999998
   12.58138847  135.26300049    1.83000004    1.76999998
   12.58472157  133.56100464    1.83000004    1.76999998
   12.58805561  135.21800232    1.83000004    1.76999998
   12.59138870  135.41700745    1.83000004    1.76999998
   12.59444427  134.13999939    1.83000004    1.76999998
   12.59694386  136.70199585    1.83000004    1.76999998
   12.59833336  139.98100281    1.83000004    1.76999998
   12.60138893  136.16900635    1.83000004    1.76999998
   12.60694504  136.16900635    1.83000004    1.76999998
   12.61111164  139.63800049    1.83000004    1.76999998
   12.61444473  147.86099243    1.83000004    1.76999998
   12.61777782  144.05400085    1.83000004    1.76999998
   12.62111092  143.33700562    1.83000004    1.76999998
   12.62416649  142.74400330    1.83000004    1.76999998
   12.62750053  149.09100342    1.83000004    1.76999998
   12.63027763  141.37399292    1.83000004    1.76999998
   12.63138866  147.20599365    1.83000004    1.76999998
   12.63444424  154.53199768    1.83000004    1.76999998
   12.63777733  148.95399475    1.83000004    1.76999998
   12.64111137  144.00199890    1.83000004    1.76999998
   12.64444447  145.84399414    1.83000004    1.76999998
   12.64999962  145.84399414    1.83000004    1.76999998
   12.65416622  146.77200317    1.83000004    1.76999998
   12.65722179  144.07099915    1.83000004    1.76999998
   12.66055489  147.23500061    1.83000004    1.76999998
   12.66361046  139.84199524    1.83000004    1.76999998
   12.66444397  141.38400269    1.83000004    1.76999998
   12.66750050  139.64999390    1.83000004    1.76999998
   12.67083359  139.88800049    1.83000004    1.76999998
   12.67416668  136.91999817    1.83000004    1.76999998
   12.67750072  137.08099365    1.83000004    1.76999998
   12.68083382  140.74800110    1.83000004    1.76999998
   12.68388939  140.93899536    1.83000004    1.76999998
   12.68722248  138.69000244    1.83000004    1.76999998
   12.69277763  138.69000244    1.83000004    1.76999998
   12.69694424  141.90600586    1.83000004    1.76999998
   12.70027733  142.62800598    1.83000004    1.76999998
   12.70361137  146.53700256    1.83000004    1.76999998
   12.70666695  148.66799927    1.83000004    1.76999998
   12.71000004  146.68899536    1.83000004    1.76999998
   12.71333313  149.01199341    1.83000004    1.76999998
   12.71666622  146.71099854    1.83000004    1.76999998
   12.71972179  147.06100464    1.83000004    1.76999998
   12.72305489  147.02999878    1.83000004    1.76999998
   12.72638798  141.38200378    1.83000004    1.76999998
   12.72972202  144.22900391    1.83000004    1.76999998
   12.73027706  151.07200623    1.83000004    1.76999998
   12.73555565  151.07200623    1.83000004    1.76999998
   12.73972225  142.23800659    1.83000004    1.76999998
   12.74305534  140.91999817    1.83000004    1.76999998
   12.74638939  142.71400452    1.83000004    1.76999998
   12.74944496  145.35600281    1.83000004    1.76999998
   12.75277805  148.26699829    1.83000004    1.76999998
   12.75611115  142.66200256    1.83000004    1.76999998
   12.75944424  140.44799805    1.83000004    1.76999998
   12.76249981  140.57899475    1.83000004    1.76999998
   12.76361084  142.53100586    1.83000004    1.76999998
   12.76638889  151.09599304    1.83000004    1.76999998
   12.76944447  146.24800110    1.83000004    1.76999998
   12.77277756  142.13200378    1.83000004    1.76999998
   12.77833271  142.13200378    1.83000004    1.76999998
   12.78249931  143.31599426    1.83000004    1.76999998
   12.78583336  146.38800049    1.83000004    1.76999998
   12.78916740  142.14300537    1.83000004    1.76999998
   12.79250050  144.54499817    1.83000004    1.76999998
   12.79555607  140.16499329    1.83000004    1.76999998
   12.79694462  148.76100159    1.83000004    1.76999998
   12.79944515  139.48800659    1.83000004    1.76999998
   12.80277824  139.72900391    1.83000004    1.76999998
   12.80583382  141.74499512    1.83000004    1.76999998
   12.80916691  146.05999756    1.83000004    1.76999998
   12.81250000  147.85800171    1.83000004    1.76999998
   12.81583309  144.11399841    1.83000004    1.76999998
   12.82138920  144.11399841    1.83000004    1.76999998
   12.82555580  141.69500732    1.83000004    1.76999998
   12.82888889  146.13800049    1.83000004    1.76999998
   12.83027744  146.90299988    1.83000004    1.76999998
   12.83249950  146.65400696    1.83000004    1.76999998
   12.83555508  138.50100708    1.83000004    1.76999998
   12.83888817  148.52000427    1.83000004    1.76999998
   12.84222221  146.55700684    1.83000004    1.76999998
   12.84555531  139.28700256    1.83000004    1.76999998
   12.84861088  135.09599304    1.83000004    1.76999998
   12.85194492  147.61099243    1.83000004    1.76999998
   12.85527802  137.86099243    1.83000004    1.76999998
   12.85861111  139.99899292    1.83000004    1.76999998
   12.86416721  139.99899292    1.83000004    1.76999998
   12.86833382  139.59800720    1.83000004    1.76999998
   12.87166691  140.09300232    1.83000004    1.76999998
   12.87500000  145.13200378    1.83000004    1.76999998
   12.87805557  132.79699707    1.83000004    1.76999998
   12.88166714  134.11300659    1.83000004    1.76999998
   12.88472176  150.10200500    1.83000004    1.76999998
   12.88805580  145.53599548    1.83000004    1.76999998
   12.89138889  138.38699341    1.83000004    1.76999998
   12.89472198  139.62699890    1.83000004    1.76999998
   12.89694405  148.05900574    1.83000004    1.76999998
   12.89833355  142.65299988    1.83000004    1.76999998
   12.90138817  147.68400574    1.83000004    1.76999998
   12.90694427  147.68400574    1.83000004    1.76999998
   12.91111088  139.11500549    1.83000004    1.76999998
   12.91444397  140.54699707    1.83000004    1.76999998
   12.91777802  140.01800537    1.83000004    1.76999998
   12.92083359  141.41099548    1.83000004    1.76999998
   12.92416668  142.39100647    1.83000004    1.76999998
   12.92750072  146.36300659    1.83000004    1.76999998
   12.93027782  145.25199890    1.83000004    1.76999998
   12.93111134  146.87600708    1.83000004    1.76999998
   12.93416691  142.86300659    1.83000004    1.76999998
   12.93750000  140.55700684    1.83000004    1.76999998
   12.94083309  139.97900391    1.83000004    1.76999998
   12.94416714  143.94400024    1.83000004    1.76999998
   12.94972229  143.94400024    1.83000004    1.76999998
   12.95388889  139.94500732    1.83000004    1.76999998
   12.95722198  135.75799561    1.83000004    1.76999998
   12.96055508  141.47500610    1.83000004    1.76999998
   12.96361065  144.41400146    1.83000004    1.76999998
   12.96416664  143.58599854    1.83000004    1.76999998
   12.96749973  141.38499451    1.83000004    1.76999998
   12.97055531  139.74600220    1.83000004    1.76999998
   12.97388840  144.07899475    1.83000004    1.76999998
   12.97722149  137.14399719    1.83000004    1.76999998
   12.98055553  137.24000549    1.83000004    1.76999998
   12.98361111  137.00500488    1.83000004    1.76999998
   12.98694515  132.35400391    1.83000004    1.76999998
   12.99277782  132.35400391    1.83000004    1.76999998
   12.99694443  139.43699646    1.83000004    1.76999998
   12.99750042  150.08299255    1.83000004    1.76999998
   13.00055599  135.16299438    1.83000004    1.76999998
   13.00388908  130.21899414    1.83000004    1.76999998
   13.00722218  140.62800598    1.83000004    1.76999998
   13.01055527  138.72399902    1.83000004    1.76999998
   13.01361084  140.12500000    1.83000004    1.76999998
   13.01694393  142.68699646    1.83000004    1.76999998
   13.02027798  143.72399902    1.83000004    1.76999998
   13.02361107  148.57200623    1.83000004    1.76999998
   13.02694416  145.80000305    1.83000004    1.76999998
   13.02999973  145.13499451    1.83000004    1.76999998
   13.04722309  145.73500061    1.83000004    1.76999998
   13.05138874  145.73500061    1.83000004    1.76999998
   13.05555534  141.79600525    1.83000004    1.76999998
   13.05888939  145.99699402    1.83000004    1.76999998
   13.06222248  137.79600525    1.83000004    1.76999998
   13.06527805  148.37199402    1.83000004    1.76999998
   13.06861115  147.59199524    1.83000004    1.76999998
   13.07194424  180.59899902    1.83000004    1.76999998
   13.07527733  158.92900085    1.83000004    1.76999998
   13.07833290  137.85000610    1.83000004    1.76999998
   13.08055592  145.97200012    1.83000004    1.76999998
   13.08194447  151.50100708    1.83000004    1.76999998
   13.08527756  134.17999268    1.83000004    1.76999998
   13.08861065  157.02499390    1.83000004    1.76999998
   13.09416676  157.02499390    1.83000004    1.76999998
   13.09833336  131.07800293    1.83000004    1.76999998
   13.10166740  134.40400696    1.83000004    1.76999998
   13.10500050  136.32699585    1.83000004    1.76999998
   13.10805607  139.56500244    1.83000004    1.76999998
   13.11138916  136.22599792    1.83000004    1.76999998
   13.11388969  155.12199402    1.83000004    1.76999998
   13.11500072  143.19599915    1.83000004    1.76999998
   13.11833382  135.19000244    1.83000004    1.76999998
   13.12166691  139.36999512    1.83000004    1.76999998
   13.12500000  139.57899475    1.83000004    1.76999998
   13.12805557  149.40299988    1.83000004    1.76999998
   13.13138866  159.96499634    1.83000004    1.76999998
   13.13694477  159.96499634    1.83000004    1.76999998
   13.14111137  140.95500183    1.83000004    1.76999998
   13.14444447  144.16600037    1.83000004    1.76999998
   13.14722252  142.94000244    1.83000004    1.76999998
   13.14805508  143.70599365    1.83000004    1.76999998
   13.15138817  140.84800720    1.83000004    1.76999998
   13.15472221  134.61799622    1.83000004    1.76999998
   13.15805531  138.06399536    1.83000004    1.76999998
   13.16111088  133.41099548    1.83000004    1.76999998
   13.16444397  145.22599792    1.83000004    1.76999998
